Data from printlaranja_Reflection_00003.txt Node
Date: Thu Apr 11 13:54:16 AEST 2024
User: uqkchene_local
Spectrometer: USB4E02642
Trigger mode: 4
Integration Time (sec): 2.541000E-2
Scans to average: 101
Electric dark correction enabled: true
Nonlinearity correction enabled: false
Boxcar width: 10
XAxis mode: Wavelengths
Number of Pixels in Spectrum: 3648
>>>>>Begin Spectral Data<<<<<
179.217	110.48491846
179.432	124.25990004
179.647	114.90755479
179.862	116.58016935
180.077	107.10311573
180.293	82.40576381
180.508	98.82147288
180.723	102.62980445
180.938	76.11793445
181.153	60.02478421
181.368	50.41220115
181.583	46.23879893
181.798	38.29590579
182.013	34.05310681
182.228	30.42330754
182.443	30.39022377
182.658	31.42736384
182.873	30.4093462
183.088	32.36773382
183.303	31.24675958
183.518	29.66792687
183.733	29.6142674
183.948	27.74487639
184.162	28.12635668
184.377	28.47232646
184.592	28.05993723
184.807	28.15613149
185.022	27.42046129
185.237	27.41952666
185.452	27.23031506
185.667	26.77968797
185.882	26.74800521
186.096	26.82890336
186.311	27.05747649
186.526	26.1484316
186.741	25.67648774
186.956	24.33836676
187.17	23.79542323
187.385	23.65812858
187.6	23.4884181
187.815	24.16174976
188.03	23.82754487
188.244	24.28888494
188.459	24.53669319
188.674	25.2206261
188.889	25.5076572
189.103	25.39723492
189.318	25.62188171
189.533	26.0447601
189.747	26.02427383
189.962	25.3006012
190.177	25.46323283
190.391	26.07209664
190.606	25.48454226
190.821	25.67608333
191.035	26.00502513
191.25	26.29182852
191.465	26.85760872
191.679	26.97212074
191.894	27.42675956
192.109	26.40348513
192.323	25.86599491
192.538	24.84690753
192.752	24.42790511
192.967	24.45934573
193.181	23.12192515
193.396	22.85969139
193.611	22.64124993
193.825	22.30292927
194.04	21.36013948
194.254	21.11548391
194.469	21.32696698
194.683	21.47970713
194.898	20.80024045
195.112	20.17765096
195.327	20.08751804
195.541	20.74941495
195.756	20.53371566
195.97	21.56258522
196.184	21.8593553
196.399	21.37755558
196.613	21.0411003
196.828	21.15766123
197.042	22.59128282
197.257	22.20013312
197.471	21.86390948
197.685	22.13220772
197.9	21.86374001
198.114	22.29543021
198.328	22.16058065
198.543	21.92565605
198.757	20.9762205
198.971	21.57532405
199.186	22.21761164
199.4	21.91385947
199.614	22.73237756
199.829	22.65276355
200.043	22.88601172
200.257	22.4379634
200.471	21.10960637
200.686	21.14782392
200.9	21.73484431
201.114	23.14576644
201.328	23.23615467
201.543	22.57015011
201.757	22.82848207
201.971	22.32686538
202.185	22.81688395
202.399	22.33761834
202.614	22.19766938
202.828	23.43646606
203.042	24.06586615
203.256	25.0326843
203.47	24.36991484
203.684	23.08948343
203.899	23.22120374
204.113	22.80379526
204.327	22.56219294
204.541	22.90685437
204.755	23.43190344
204.969	24.00486925
205.183	23.55564238
205.397	23.34830508
205.611	22.76020692
205.825	22.35382132
206.039	22.77842809
206.253	22.77317646
206.467	23.5629022
206.681	22.69899037
206.895	23.58514066
207.109	23.95735573
207.323	23.27307941
207.537	23.24716831
207.751	23.22707055
207.965	23.80461155
208.179	23.7236672
208.393	24.08080114
208.607	23.37023069
208.821	23.5797225
209.035	22.64605485
209.249	22.64972628
209.463	22.50554324
209.677	22.20515821
209.891	21.94253978
210.104	21.06059862
210.318	21.18052698
210.532	21.49906752
210.746	21.82057698
210.96	21.83850462
211.174	22.08072647
211.387	21.06333954
211.601	21.30790324
211.815	20.6034723
212.029	19.76655313
212.243	19.11457899
212.456	18.52722255
212.67	18.40284791
212.884	17.88779709
213.098	18.28586259
213.311	17.54920455
213.525	17.99415176
213.739	18.49221726
213.953	18.63735507
214.166	18.56318352
214.38	18.89259649
214.594	19.46144729
214.807	19.85892346
215.021	19.85207149
215.235	19.42274517
215.448	18.6631719
215.662	18.23199494
215.876	18.85705413
216.089	18.11349943
216.303	19.00654757
216.516	19.49265795
216.73	20.13822154
216.944	20.63265729
217.157	21.029081
217.371	21.69759222
217.584	22.25477808
217.798	23.00864635
218.011	22.13872189
218.225	21.75251733
218.439	20.80997849
218.652	21.25298095
218.866	21.53223829
219.079	21.61473887
219.293	21.27973006
219.506	21.46135502
219.719	21.71901176
219.933	22.44602102
220.146	22.51165275
220.36	22.71515521
220.573	23.71509282
220.787	23.42901913
221	24.45688852
221.214	24.5100712
221.427	23.37425917
221.64	23.54785098
221.854	23.45700648
222.067	22.50708708
222.28	22.406588
222.494	22.30718578
222.707	22.34187812
222.92	22.71527148
223.134	23.10231288
223.347	22.32481174
223.56	23.10523081
223.774	23.86301025
223.987	24.28515564
224.2	24.11397944
224.414	23.3582913
224.627	24.43802992
224.84	24.07630083
225.053	24.69511723
225.267	25.70565606
225.48	24.08544582
225.693	23.89385303
225.906	24.68948323
226.119	24.51867264
226.333	23.91356238
226.546	23.57448272
226.759	23.37520522
226.972	24.15223934
227.185	23.55742549
227.398	23.44766366
227.612	22.74442616
227.825	22.16922658
228.038	21.23677972
228.251	19.91234377
228.464	19.42280098
228.677	19.46273029
228.89	20.96667792
229.103	20.42024877
229.316	20.78412226
229.529	19.13638472
229.743	17.61392532
229.956	18.1183136
230.169	17.83754965
230.382	17.26294041
230.595	17.17845845
230.808	17.25534048
231.021	17.38537202
231.234	17.90964231
231.447	18.27596641
231.66	18.72079439
231.872	19.08210748
232.085	19.60687198
232.298	20.11445622
232.511	20.27452378
232.724	20.66063617
232.937	20.11048825
233.15	20.33758718
233.363	19.14110887
233.576	18.84943182
233.789	18.07109843
234.002	18.3690071
234.214	19.0717917
234.427	19.0652674
234.64	19.25553954
234.853	18.94438854
235.066	18.81901213
235.279	18.32657434
235.491	18.9947138
235.704	18.73554535
235.917	18.23378933
236.13	17.66241345
236.342	17.0678181
236.555	16.50635631
236.768	16.34295671
236.981	16.15448838
237.193	15.34580737
237.406	15.67451372
237.619	16.00643586
237.832	16.29195768
238.044	17.31487878
238.257	17.79511448
238.47	17.55740054
238.682	17.23886104
238.895	17.18924538
239.108	17.77974314
239.32	17.65279784
239.533	18.24831437
239.746	18.71701519
239.958	18.48678031
240.171	18.4541262
240.383	18.02252149
240.596	18.27478033
240.808	18.70511737
241.021	18.4935623
241.234	18.70406627
241.446	18.80863039
241.659	19.86473131
241.871	19.61150294
242.084	18.50093026
242.296	17.14068246
242.509	16.03815439
242.721	16.39375563
242.934	16.89022533
243.146	16.47167676
243.359	16.82223841
243.571	15.63641622
243.784	16.39345506
243.996	15.8005364
244.208	15.73518883
244.421	15.33383178
244.633	16.31192524
244.846	16.33841907
245.058	16.84143091
245.27	16.72055393
245.483	16.40532632
245.695	16.00542681
245.907	16.473963
246.12	16.4562558
246.332	16.60787429
246.544	17.86593923
246.757	19.20743431
246.969	19.68060614
247.181	19.14420692
247.394	18.60905143
247.606	18.80524804
247.818	18.40639736
248.03	18.72840893
248.243	19.07660835
248.455	18.47008803
248.667	19.05373931
248.879	19.70245759
249.092	17.87966068
249.304	17.87757723
249.516	17.49956931
249.728	17.69080991
249.94	18.72396169
250.153	18.92232018
250.365	17.95135345
250.577	18.42165783
250.789	18.84151808
251.001	18.06371458
251.213	17.76497895
251.425	18.14136883
251.637	18.04614579
251.85	18.43472079
252.062	18.91581411
252.274	18.9658143
252.486	19.1096968
252.698	18.70566618
252.91	19.13272592
253.122	18.42550469
253.334	18.02627276
253.546	19.20806794
253.758	19.20817569
253.97	19.6114194
254.182	19.85515781
254.394	18.72810582
254.606	18.69701617
254.818	19.51716559
255.03	18.66747961
255.242	17.96336738
255.454	18.24768597
255.666	18.52285967
255.877	18.01307429
256.089	17.21755698
256.301	16.72640298
256.513	16.74636735
256.725	17.68567592
256.937	17.7404474
257.149	17.67790844
257.361	18.49741077
257.572	18.361279
257.784	19.1270038
257.996	18.38210101
258.208	18.42717575
258.42	17.89066326
258.631	17.51199923
258.843	18.70197865
259.055	18.29067168
259.267	17.49887016
259.479	17.63995414
259.69	18.10985504
259.902	18.29683929
260.114	17.83917565
260.325	18.04377768
260.537	19.410462
260.749	19.9835965
260.961	19.33587017
261.172	18.13121299
261.384	18.4097306
261.596	18.77910019
261.807	19.02096108
262.019	19.23595475
262.23	18.44880133
262.442	18.39923209
262.654	17.86544033
262.865	17.56195808
263.077	18.07066312
263.288	17.5950777
263.5	17.35634031
263.712	17.15152896
263.923	16.543862
264.135	16.07690666
264.346	15.26695623
264.558	15.33735313
264.769	14.38299074
264.981	14.08328397
265.192	13.82345415
265.404	14.24627684
265.615	14.69439886
265.827	14.40056455
266.038	14.88191756
266.25	14.37792971
266.461	14.20140242
266.673	14.43113076
266.884	14.54499638
267.095	15.18566966
267.307	15.73803099
267.518	15.32855527
267.73	15.65071528
267.941	16.78556151
268.152	16.90931754
268.364	17.17013802
268.575	17.16335949
268.786	17.68427383
268.998	18.27281446
269.209	18.46378498
269.42	18.63446269
269.632	18.44724018
269.843	19.111455
270.054	19.60045389
270.265	18.70889726
270.477	18.23668907
270.688	18.13055672
270.899	18.5902964
271.11	19.04344449
271.322	19.10015585
271.533	19.32155817
271.744	18.96871951
271.955	18.88422365
272.166	18.58291127
272.378	17.74248513
272.589	18.04776509
272.8	18.1415621
273.011	18.05487535
273.222	18.65637898
273.433	18.05512021
273.644	18.60208977
273.856	18.24969203
274.067	17.71635783
274.278	16.93426006
274.489	16.56371686
274.7	17.11720588
274.911	16.21889337
275.122	16.06849569
275.333	15.52783132
275.544	14.87983924
275.755	14.94332223
275.966	15.08351641
276.177	15.0231422
276.388	14.88659286
276.599	15.36816573
276.81	16.02424257
277.021	16.48780545
277.232	16.70299823
277.443	17.06510151
277.654	16.33189337
277.865	16.41160373
278.076	15.37236001
278.287	14.90961437
278.497	16.09832339
278.708	16.42399634
278.919	16.41917861
279.13	16.24017537
279.341	16.81345573
279.552	17.54587542
279.763	17.84270695
279.973	18.29046578
280.184	18.44998555
280.395	18.05240252
280.606	18.32925907
280.817	18.33335158
281.027	17.7491467
281.238	17.20407251
281.449	16.97837714
281.66	17.26361423
281.87	16.92894481
282.081	16.83797288
282.292	17.37940863
282.503	18.1440248
282.713	18.69646523
282.924	18.37682181
283.135	18.65847973
283.345	18.97866493
283.556	19.38728781
283.767	19.76176376
283.977	19.22169689
284.188	18.88038907
284.399	18.48072562
284.609	18.57467662
284.82	18.5546736
285.03	18.18499428
285.241	18.74149183
285.451	18.27537013
285.662	18.54368065
285.873	18.70096545
286.083	18.16938694
286.294	18.46325037
286.504	18.17583157
286.715	17.54167188
286.925	17.9042098
287.136	17.81329682
287.346	17.34872844
287.557	16.67695098
287.767	15.8016734
287.978	15.56083465
288.188	15.50820482
288.399	15.23285752
288.609	16.16583418
288.819	15.96717022
289.03	15.64180531
289.24	15.30062895
289.451	15.19806976
289.661	14.88875
289.871	15.08187173
290.082	14.95653081
290.292	14.71423374
290.502	14.54648173
290.713	14.05315868
290.923	13.66203399
291.133	14.0256117
291.344	13.69992576
291.554	13.52648443
291.764	13.29082338
291.974	13.17467189
292.185	13.32583754
292.395	12.99489777
292.605	12.61240426
292.815	12.63646889
293.026	11.69043009
293.236	11.58700783
293.446	11.46677825
293.656	11.47241371
293.866	11.25317711
294.077	10.64485528
294.287	10.2373684
294.497	9.7597451
294.707	9.59579407
294.917	9.48928179
295.127	9.43678798
295.337	9.41503896
295.548	8.97511235
295.758	8.59864411
295.968	8.33029041
296.178	8.20449034
296.388	8.13139982
296.598	7.93998034
296.808	7.65898831
297.018	7.31495907
297.228	7.1973593
297.438	7.09083753
297.648	6.97308797
297.858	6.83729142
298.068	6.65408758
298.278	6.52986089
298.488	6.52458638
298.698	6.54792138
298.908	6.56506192
299.118	6.4560101
299.328	6.38029041
299.538	6.27891532
299.748	6.20270705
299.957	6.10408655
300.167	6.0505456
300.377	5.94349999
300.587	5.90095027
300.797	5.79263901
301.007	5.76516906
301.217	5.79611189
301.426	5.82271564
301.636	5.77602361
301.846	5.72130653
302.056	5.65968778
302.266	5.62567387
302.475	5.59434142
302.685	5.55287405
302.895	5.52029042
303.105	5.45927049
303.314	5.4033247
303.524	5.36834453
303.734	5.32251326
303.944	5.28786797
304.153	5.24553714
304.363	5.21892445
304.573	5.1753146
304.782	5.17110118
304.992	5.1350687
305.202	5.12566088
305.411	5.08966818
305.621	5.05931232
305.831	5.03469598
306.04	5.00726277
306.25	5.01392384
306.459	4.99703803
306.669	4.9845946
306.878	4.97123679
307.088	4.96725996
307.298	4.94754271
307.507	4.93388605
307.717	4.92108334
307.926	4.90874186
308.136	4.8979139
308.345	4.88646456
308.555	4.8859553
308.764	4.87242676
308.974	4.86629908
309.183	4.8588683
309.392	4.84313993
309.602	4.82314063
309.811	4.82303346
310.021	4.7966027
310.23	4.79354376
310.44	4.78976528
310.649	4.78044228
310.858	4.77933908
311.068	4.76622703
311.277	4.75668384
311.486	4.75014664
311.696	4.75307671
311.905	4.75502119
312.114	4.75909546
312.324	4.75607457
312.533	4.75037095
312.742	4.74252647
312.952	4.74317797
313.161	4.74612284
313.37	4.74607968
313.579	4.74443616
313.789	4.74738158
313.998	4.74589249
314.207	4.73885027
314.416	4.7433828
314.625	4.73682673
314.835	4.72649999
315.044	4.71830015
315.253	4.71260909
315.462	4.70066174
315.671	4.70175504
315.88	4.69868418
316.09	4.68956618
316.299	4.68191035
316.508	4.67214607
316.717	4.66340778
316.926	4.66297753
317.135	4.66053221
317.344	4.65053406
317.553	4.65015309
317.762	4.65330355
317.971	4.65094176
318.18	4.65205145
318.389	4.64989417
318.598	4.64320336
318.807	4.64469918
319.016	4.63927186
319.225	4.63617429
319.434	4.62808062
319.643	4.61801039
319.852	4.6208577
320.061	4.61780791
320.27	4.60670111
320.479	4.59742619
320.688	4.59215581
320.897	4.58562082
321.105	4.58386245
321.314	4.58185424
321.523	4.57824271
321.732	4.57102651
321.941	4.57158752
322.15	4.56332609
322.359	4.5576212
322.567	4.55217951
322.776	4.54855358
322.985	4.54604213
323.194	4.54166941
323.403	4.53490243
323.611	4.53395203
323.82	4.53370209
324.029	4.53338075
324.237	4.53061231
324.446	4.52645775
324.655	4.53118011
324.864	4.53211209
325.072	4.52784502
325.281	4.52419961
325.49	4.52193289
325.698	4.51881106
325.907	4.51953976
326.116	4.52101272
326.324	4.51350431
326.533	4.51359207
326.741	4.51343123
326.95	4.50977218
327.159	4.51112502
327.367	4.51300451
327.576	4.51210214
327.784	4.51516486
327.993	4.51037591
328.201	4.51227889
328.41	4.51278569
328.618	4.51179528
328.827	4.51206709
329.035	4.50750822
329.244	4.50857418
329.452	4.50974325
329.661	4.51205469
329.869	4.50959892
330.078	4.51076295
330.286	4.50907929
330.495	4.50991968
330.703	4.51057026
330.911	4.50997853
331.12	4.50389796
331.328	4.50201969
331.537	4.49659637
331.745	4.49332359
331.953	4.49374678
332.162	4.49478568
332.37	4.49714584
332.578	4.4952361
332.787	4.49366202
332.995	4.49436915
333.203	4.49106531
333.411	4.48806204
333.62	4.4842671
333.828	4.48214195
334.036	4.47863032
334.244	4.4774743
334.453	4.47485384
334.661	4.47460247
334.869	4.47185977
335.077	4.47027237
335.285	4.46804688
335.494	4.47113885
335.702	4.47355664
335.91	4.47687189
336.118	4.47540354
336.326	4.47474063
336.534	4.47170941
336.742	4.4698942
336.951	4.47080857
337.159	4.47038706
337.367	4.46679242
337.575	4.46846825
337.783	4.4705261
337.991	4.47060229
338.199	4.47115881
338.407	4.47311539
338.615	4.478609
338.823	4.47432463
339.031	4.47120983
339.239	4.46967803
339.447	4.47436217
339.655	4.47363056
339.863	4.47321143
340.071	4.46977832
340.279	4.47091555
340.487	4.47001477
340.695	4.46830725
340.903	4.46954996
341.11	4.46725371
341.318	4.46130775
341.526	4.46056327
341.734	4.46149959
341.942	4.46057688
342.15	4.46155426
342.358	4.45908418
342.565	4.46118152
342.773	4.46127477
342.981	4.45725281
343.189	4.4600212
343.397	4.46347556
343.604	4.46348681
343.812	4.45945819
344.02	4.45810187
344.228	4.45899201
344.435	4.46133706
344.643	4.45582253
344.851	4.45760652
345.058	4.45453335
345.266	4.45287293
345.474	4.45284355
345.681	4.45699744
345.889	4.45936878
346.097	4.45898791
346.304	4.45637785
346.512	4.45761348
346.72	4.46233041
346.927	4.46211878
347.135	4.46233201
347.342	4.45998569
347.55	4.45987529
347.758	4.46085287
347.965	4.46249096
348.173	4.46266167
348.38	4.4670445
348.588	4.46949552
348.795	4.4688167
349.003	4.47017944
349.21	4.46993639
349.418	4.47385598
349.625	4.47353595
349.833	4.47687899
350.04	4.47588978
350.247	4.47905168
350.455	4.48189135
350.662	4.48579245
350.87	4.49042208
351.077	4.49273041
351.284	4.49192641
351.492	4.49316238
351.699	4.49760077
351.906	4.50012603
352.114	4.4985796
352.321	4.4973514
352.528	4.49532789
352.736	4.49392939
352.943	4.49238651
353.15	4.49491267
353.358	4.49886543
353.565	4.49715684
353.772	4.49813132
353.979	4.5021407
354.187	4.50126561
354.394	4.50163069
354.601	4.50227738
354.808	4.50110233
355.015	4.50571101
355.223	4.50392529
355.43	4.50148641
355.637	4.50368479
355.844	4.50535461
356.051	4.50497907
356.258	4.50479373
356.465	4.51080151
356.673	4.51274543
356.88	4.51850102
357.087	4.52019268
357.294	4.5225749
357.501	4.52324091
357.708	4.52261531
357.915	4.52862713
358.122	4.53141162
358.329	4.5336564
358.536	4.53570265
358.743	4.5380389
358.95	4.53737737
359.157	4.54113732
359.364	4.53884179
359.571	4.5391588
359.778	4.5416343
359.985	4.54079009
360.192	4.54487107
360.399	4.54811875
360.606	4.55339385
360.812	4.55230736
361.019	4.55465109
361.226	4.55441172
361.433	4.55516268
361.64	4.55646971
361.847	4.55709807
362.054	4.55768514
362.26	4.56019303
362.467	4.56147204
362.674	4.56203163
362.881	4.56512029
363.088	4.56526377
363.294	4.5681057
363.501	4.56705488
363.708	4.56890694
363.915	4.57192397
364.121	4.57282243
364.328	4.57397205
364.535	4.57289673
364.741	4.57687608
364.948	4.57475344
365.155	4.57511091
365.361	4.57605451
365.568	4.57842934
365.775	4.583416
365.981	4.5857535
366.188	4.58779654
366.395	4.59324353
366.601	4.59367957
366.808	4.59477727
367.014	4.59652531
367.221	4.59897573
367.427	4.60219232
367.634	4.60337429
367.84	4.60726689
368.047	4.61099675
368.254	4.61339567
368.46	4.61556006
368.667	4.61899658
368.873	4.62312369
369.079	4.6222778
369.286	4.62524096
369.492	4.62718397
369.699	4.62952178
369.905	4.62967394
370.112	4.63251129
370.318	4.63239554
370.524	4.63725964
370.731	4.64018165
370.937	4.64246805
371.144	4.64701584
371.35	4.65064028
371.556	4.65204887
371.763	4.6562779
371.969	4.65886498
372.175	4.66103548
372.381	4.66222898
372.588	4.66389084
372.794	4.66740327
373	4.67346466
373.206	4.67425245
373.413	4.6784716
373.619	4.68027008
373.825	4.6839296
374.031	4.6875212
374.238	4.6902292
374.444	4.68915117
374.65	4.69422883
374.856	4.69631396
375.062	4.69683044
375.268	4.69975095
375.475	4.70098132
375.681	4.70310053
375.887	4.70642929
376.093	4.70992457
376.299	4.70818399
376.505	4.70949634
376.711	4.71228746
376.917	4.71727495
377.123	4.72103205
377.329	4.723359
377.535	4.72779043
377.741	4.73263536
377.947	4.73594506
378.153	4.7391638
378.359	4.74180467
378.565	4.74691869
378.771	4.75404453
378.977	4.75878772
379.183	4.76006972
379.389	4.76415146
379.595	4.76729543
379.801	4.77170353
380.007	4.77629063
380.213	4.78054334
380.418	4.78126457
380.624	4.78872983
380.83	4.79365918
381.036	4.79639013
381.242	4.79498129
381.448	4.79777764
381.653	4.79686678
381.859	4.80297211
382.065	4.80609345
382.271	4.80967464
382.476	4.81644643
382.682	4.8188762
382.888	4.82203543
383.094	4.82458194
383.299	4.82641525
383.505	4.83160204
383.711	4.83949868
383.916	4.84177721
384.122	4.84696828
384.328	4.84781332
384.533	4.85075065
384.739	4.85452284
384.945	4.86006138
385.15	4.86255783
385.356	4.86444716
385.562	4.86791066
385.767	4.86983165
385.973	4.87651308
386.178	4.87908772
386.384	4.87410642
386.589	4.88028509
386.795	4.88089284
387	4.88644766
387.206	4.89051696
387.411	4.89343804
387.617	4.89590403
387.822	4.89955788
388.028	4.90053534
388.233	4.90363306
388.439	4.90479767
388.644	4.90768247
388.85	4.91080822
389.055	4.91686244
389.26	4.92184948
389.466	4.92771
389.671	4.9322946
389.877	4.93705832
390.082	4.94227965
390.287	4.94820177
390.493	4.9491472
390.698	4.95826273
390.903	4.96117228
391.109	4.9659436
391.314	4.97054592
391.519	4.97270807
391.724	4.97488465
391.93	4.97722596
392.135	4.97857877
392.34	4.98043817
392.545	4.98373035
392.751	4.98582793
392.956	4.98910377
393.161	4.99101224
393.366	4.99261707
393.571	4.9925937
393.776	4.99577545
393.982	4.9993417
394.187	5.00062961
394.392	5.00443891
394.597	5.00349806
394.802	5.00743243
395.007	5.01072485
395.212	5.01122969
395.417	5.01217401
395.622	5.01558138
395.827	5.01742005
396.032	5.02083133
396.237	5.02365063
396.442	5.0276155
396.647	5.02841536
396.852	5.0315198
397.057	5.03321358
397.262	5.03542065
397.467	5.03744104
397.672	5.03841339
397.877	5.04009822
398.082	5.0423365
398.287	5.04376911
398.492	5.04505076
398.697	5.0438049
398.902	5.04628184
399.107	5.04266851
399.311	5.04362239
399.516	5.04418805
399.721	5.04511327
399.926	5.04585535
400.131	5.04836438
400.336	5.04924637
400.54	5.05035739
400.745	5.05038191
400.95	5.0516642
401.155	5.05269583
401.359	5.05231256
401.564	5.05458967
401.769	5.05579022
401.974	5.05877565
402.178	5.06155538
402.383	5.06124525
402.588	5.06214415
402.792	5.06464857
402.997	5.06624079
403.202	5.0663913
403.406	5.07127366
403.611	5.07074218
403.815	5.07264137
404.02	5.07237104
404.225	5.0708654
404.429	5.06999617
404.634	5.06955687
404.838	5.06969415
405.043	5.07010712
405.247	5.07171496
405.452	5.07296187
405.656	5.0756864
405.861	5.07544369
406.065	5.07653974
406.27	5.07538744
406.474	5.07551223
406.679	5.07701665
406.883	5.07635674
407.088	5.07738057
407.292	5.07615729
407.497	5.07613648
407.701	5.07387766
407.905	5.07510683
408.11	5.07328142
408.314	5.07474284
408.518	5.07673966
408.723	5.07696836
408.927	5.0777269
409.131	5.08011271
409.336	5.08087051
409.54	5.08036591
409.744	5.07788523
409.949	5.07718016
410.153	5.07759398
410.357	5.07699024
410.561	5.07688045
410.766	5.07419562
410.97	5.07231256
411.174	5.07072686
411.378	5.06981677
411.582	5.06985179
411.787	5.07058157
411.991	5.07262743
412.195	5.07130112
412.399	5.07479359
412.603	5.07501352
412.807	5.0742258
413.011	5.07413926
413.215	5.07413052
413.419	5.07204814
413.624	5.07160523
413.828	5.07320251
414.032	5.07530376
414.236	5.07619841
414.44	5.07384279
414.644	5.07202135
414.848	5.07277018
415.052	5.07165967
415.256	5.07207638
415.46	5.07387797
415.664	5.07390911
415.868	5.07699886
416.072	5.07896219
416.275	5.07835383
416.479	5.08056089
416.683	5.07868081
416.887	5.07874694
417.091	5.07748769
417.295	5.07714335
417.499	5.07733393
417.703	5.07982965
417.906	5.07975681
418.11	5.07964586
418.314	5.08160052
418.518	5.0797931
418.722	5.08182406
418.925	5.08419853
419.129	5.08599631
419.333	5.09034877
419.537	5.09262751
419.74	5.09322091
419.944	5.09467452
420.148	5.09435102
420.352	5.09221455
420.555	5.09477902
420.759	5.09364612
420.963	5.09572398
421.166	5.09474519
421.37	5.09797727
421.573	5.10248478
421.777	5.10223326
421.981	5.10131656
422.184	5.10185202
422.388	5.10340456
422.591	5.10141377
422.795	5.10319771
422.999	5.1049489
423.202	5.10531538
423.406	5.10389182
423.609	5.10249094
423.813	5.10151524
424.016	5.10503187
424.22	5.10541817
424.423	5.10579197
424.627	5.1052038
424.83	5.10421022
425.033	5.10336748
425.237	5.10507082
425.44	5.1044229
425.644	5.10478131
425.847	5.10273073
426.05	5.10266989
426.254	5.10212266
426.457	5.10403699
426.66	5.10333679
426.864	5.10737314
427.067	5.10794722
427.27	5.10978391
427.474	5.10930185
427.677	5.10856746
427.88	5.10953556
428.084	5.10963148
428.287	5.10589439
428.49	5.10755747
428.693	5.10778275
428.896	5.11080319
429.1	5.11266736
429.303	5.11427142
429.506	5.11358348
429.709	5.11918843
429.912	5.11945051
430.116	5.12201229
430.319	5.12172603
430.522	5.12495648
430.725	5.12502539
430.928	5.12617275
431.131	5.12345916
431.334	5.1241342
431.537	5.12390842
431.74	5.12512808
431.943	5.12841462
432.146	5.13113987
432.349	5.13339698
432.552	5.1343745
432.755	5.1350387
432.958	5.13569943
433.161	5.13462896
433.364	5.1356725
433.567	5.13850794
433.77	5.13794646
433.973	5.13800422
434.176	5.13931547
434.379	5.139572
434.582	5.14357656
434.785	5.14546801
434.988	5.14757253
435.19	5.14722291
435.393	5.15091416
435.596	5.15364312
435.799	5.15539498
436.002	5.15906086
436.205	5.16046252
436.407	5.16070525
436.61	5.16019052
436.813	5.16385581
437.016	5.16386067
437.218	5.16584116
437.421	5.16844562
437.624	5.16886873
437.827	5.16814842
438.029	5.1693931
438.232	5.16997763
438.435	5.16971402
438.637	5.16983289
438.84	5.16962246
439.043	5.16799401
439.245	5.16732458
439.448	5.16947251
439.65	5.16886022
439.853	5.16769842
440.056	5.16937603
440.258	5.16946722
440.461	5.16763259
440.663	5.16788458
440.866	5.16789877
441.068	5.1689147
441.271	5.17067709
441.473	5.17009105
441.676	5.17112015
441.878	5.1724993
442.081	5.1748933
442.283	5.17711608
442.486	5.17952995
442.688	5.1832519
442.89	5.18534161
443.093	5.18717774
443.295	5.18640243
443.498	5.18699798
443.7	5.19048565
443.902	5.19158585
444.105	5.19393283
444.307	5.19257448
444.509	5.1935925
444.712	5.19708975
444.914	5.20050189
445.116	5.20417111
445.319	5.20613804
445.521	5.20735884
445.723	5.20993598
445.925	5.2114563
446.128	5.21294303
446.33	5.21507229
446.532	5.21723771
446.734	5.21738904
446.936	5.21836939
447.139	5.21991306
447.341	5.22016594
447.543	5.22482933
447.745	5.22780556
447.947	5.22572551
448.149	5.22807228
448.351	5.22919944
448.553	5.22922813
448.755	5.23148899
448.958	5.23350418
449.16	5.23211804
449.362	5.23505407
449.564	5.23484297
449.766	5.23629107
449.968	5.23844132
450.17	5.24186383
450.372	5.24436022
450.574	5.24445143
450.776	5.2443789
450.978	5.24683715
451.179	5.24722779
451.381	5.24936553
451.583	5.25267851
451.785	5.25621983
451.987	5.25864837
452.189	5.26337372
452.391	5.26670784
452.593	5.26879643
452.795	5.27318976
452.996	5.27404366
453.198	5.27655759
453.4	5.28052136
453.602	5.28212489
453.804	5.28569767
454.005	5.28685741
454.207	5.29032518
454.409	5.29222906
454.611	5.29523668
454.812	5.29863334
455.014	5.3034236
455.216	5.30523087
455.417	5.30894358
455.619	5.3121377
455.821	5.31405115
456.022	5.31671463
456.224	5.32131918
456.426	5.32347363
456.627	5.32503703
456.829	5.3296711
457.031	5.33483813
457.232	5.34099369
457.434	5.34415101
457.635	5.34748558
457.837	5.35176318
458.038	5.35728338
458.24	5.36149619
458.441	5.36473492
458.643	5.36933775
458.844	5.37373391
459.046	5.37969913
459.247	5.38517613
459.449	5.3924856
459.65	5.39870804
459.852	5.40206564
460.053	5.40796591
460.254	5.41326475
460.456	5.41931806
460.657	5.42595809
460.859	5.43195866
461.06	5.43811077
461.261	5.44297683
461.463	5.44829923
461.664	5.45437996
461.865	5.46284834
462.066	5.4686056
462.268	5.47668663
462.469	5.48519093
462.67	5.49174089
462.872	5.49808934
463.073	5.5042661
463.274	5.5109767
463.475	5.51619715
463.676	5.52290837
463.878	5.52796552
464.079	5.53782378
464.28	5.54612033
464.481	5.55175612
464.682	5.55924933
464.883	5.5665316
465.085	5.57564448
465.286	5.58365144
465.487	5.59253221
465.688	5.60079493
465.889	5.60857545
466.09	5.61670627
466.291	5.62548794
466.492	5.63294929
466.693	5.64320449
466.894	5.65389557
467.095	5.66371951
467.296	5.67201616
467.497	5.68130851
467.698	5.69207434
467.899	5.70037289
468.1	5.71088797
468.301	5.71947319
468.502	5.72742209
468.703	5.73854961
468.903	5.74771132
469.104	5.75707701
469.305	5.76728496
469.506	5.77603629
469.707	5.78557256
469.908	5.79511041
470.109	5.80568266
470.309	5.81507777
470.51	5.82568
470.711	5.83490044
470.912	5.84305058
471.112	5.8529119
471.313	5.86285815
471.514	5.8743474
471.715	5.88356511
471.915	5.89391746
472.116	5.90464269
472.317	5.91495373
472.517	5.92533685
472.718	5.93815149
472.919	5.94951808
473.119	5.96105271
473.32	5.9731535
473.521	5.98419352
473.721	5.99626449
473.922	6.00653465
474.122	6.01845777
474.323	6.03079876
474.523	6.04222915
474.724	6.05283543
474.925	6.06489287
475.125	6.0774692
475.326	6.0888192
475.526	6.10029806
475.727	6.11257625
475.927	6.12473933
476.127	6.13565549
476.328	6.146171
476.528	6.15783987
476.729	6.17059307
476.929	6.18171089
477.13	6.19280115
477.33	6.20566599
477.53	6.2157198
477.731	6.22541652
477.931	6.23912204
478.131	6.25114889
478.332	6.26242928
478.532	6.27542258
478.732	6.28792223
478.933	6.30155128
479.133	6.31381132
479.333	6.32590472
479.533	6.34078475
479.734	6.35271979
479.934	6.36492335
480.134	6.37905421
480.334	6.39349224
480.534	6.40904595
480.735	6.42320928
480.935	6.43673786
481.135	6.4513012
481.335	6.46502521
481.535	6.47842034
481.735	6.49416977
481.935	6.51067741
482.136	6.52425691
482.336	6.54090756
482.536	6.5588611
482.736	6.57330968
482.936	6.58829983
483.136	6.60507997
483.336	6.62184459
483.536	6.6394962
483.736	6.65397403
483.936	6.67072524
484.136	6.6888649
484.336	6.70542659
484.536	6.72281151
484.736	6.74064006
484.936	6.7585724
485.135	6.77709981
485.335	6.79519053
485.535	6.81585559
485.735	6.83428138
485.935	6.85566403
486.135	6.87656671
486.335	6.89921308
486.534	6.91865847
486.734	6.93839117
486.934	6.96079629
487.134	6.98253136
487.334	7.00243194
487.533	7.02420484
487.733	7.04504486
487.933	7.0677508
488.133	7.09200849
488.332	7.11405156
488.532	7.13758528
488.732	7.16135142
488.931	7.18461063
489.131	7.20891162
489.331	7.23211327
489.53	7.25701671
489.73	7.27838566
489.93	7.30352871
490.129	7.3268887
490.329	7.34854208
490.528	7.37054211
490.728	7.39647831
490.928	7.420507
491.127	7.44347567
491.327	7.46782184
491.526	7.49492363
491.726	7.52179812
491.925	7.54700531
492.125	7.57304271
492.324	7.59817637
492.524	7.6243923
492.723	7.6499104
492.922	7.67389243
493.122	7.69875034
493.321	7.7240485
493.521	7.74987185
493.72	7.77550022
493.919	7.8027375
494.119	7.82910197
494.318	7.85467128
494.517	7.88317492
494.717	7.90930672
494.916	7.93518961
495.115	7.96048301
495.315	7.98724744
495.514	8.01515879
495.713	8.03918707
495.912	8.06395955
496.112	8.09042814
496.311	8.11615661
496.51	8.1449463
496.709	8.1694208
496.908	8.19603427
497.108	8.22374423
497.307	8.25080743
497.506	8.27595256
497.705	8.30314935
497.904	8.32892315
498.103	8.35718113
498.302	8.38184962
498.501	8.40665041
498.701	8.43005432
498.9	8.45579467
499.099	8.481303
499.298	8.50664703
499.497	8.53206366
499.696	8.55577032
499.895	8.58017833
500.094	8.60488048
500.293	8.62819418
500.492	8.65169688
500.691	8.67219754
500.89	8.69675627
501.088	8.72088672
501.287	8.74339618
501.486	8.76687949
501.685	8.79192728
501.884	8.81446144
502.083	8.83625115
502.282	8.85526105
502.481	8.87606671
502.679	8.89742088
502.878	8.91984828
503.077	8.93975906
503.276	8.96040633
503.475	8.9812926
503.673	9.00044122
503.872	9.01851564
504.071	9.03793199
504.27	9.05647954
504.468	9.07495039
504.667	9.09325061
504.866	9.11005749
505.064	9.12670821
505.263	9.14256568
505.462	9.158654
505.66	9.17377596
505.859	9.18817779
506.058	9.20260191
506.256	9.21885357
506.455	9.23454089
506.653	9.24938641
506.852	9.26459319
507.05	9.27720202
507.249	9.28968152
507.448	9.30274913
507.646	9.31539054
507.845	9.32849688
508.043	9.34215411
508.242	9.35275722
508.44	9.3649048
508.638	9.37756746
508.837	9.38971303
509.035	9.4017189
509.234	9.41359546
509.432	9.42548631
509.631	9.43818786
509.829	9.448875
510.027	9.46147377
510.226	9.47413745
510.424	9.48548434
510.622	9.49809162
510.821	9.50962833
511.019	9.52044016
511.217	9.53361983
511.415	9.54681351
511.614	9.55834622
511.812	9.57136517
512.01	9.58385917
512.208	9.59710697
512.407	9.61093762
512.605	9.62225512
512.803	9.63506702
513.001	9.64614266
513.199	9.65987185
513.398	9.67183622
513.596	9.68541992
513.794	9.69770081
513.992	9.70950538
514.19	9.72276293
514.388	9.73399818
514.586	9.74654229
514.784	9.7597735
514.982	9.77363133
515.18	9.78829988
515.378	9.80165964
515.576	9.8153581
515.774	9.82883975
515.972	9.84145476
516.17	9.85506685
516.368	9.86909758
516.566	9.88465978
516.764	9.9006051
516.962	9.91704635
517.16	9.93309696
517.358	9.95113936
517.556	9.9682155
517.754	9.98382787
517.952	10.00173142
518.149	10.01934032
518.347	10.03617761
518.545	10.05484589
518.743	10.07272838
518.941	10.09120476
519.138	10.11103462
519.336	10.12935665
519.534	10.14811342
519.732	10.16889017
519.929	10.1900515
520.127	10.2125596
520.325	10.23373574
520.523	10.2562667
520.72	10.27888898
520.918	10.30224844
521.116	10.32435264
521.313	10.34994087
521.511	10.37099439
521.709	10.39446777
521.906	10.4201662
522.104	10.44233988
522.301	10.46831874
522.499	10.49288595
522.696	10.51698569
522.894	10.54382631
523.092	10.56874847
523.289	10.59474757
523.487	10.62227652
523.684	10.65018928
523.882	10.67802235
524.079	10.70623532
524.276	10.7349547
524.474	10.76438794
524.671	10.7934902
524.869	10.82308492
525.066	10.85370072
525.264	10.88357057
525.461	10.91453677
525.658	10.94649286
525.856	10.9812043
526.053	11.01354815
526.25	11.04885884
526.448	11.08438489
526.645	11.12051576
526.842	11.15945492
527.039	11.19563956
527.237	11.2340853
527.434	11.27236187
527.631	11.30983482
527.828	11.35029008
528.026	11.39025043
528.223	11.43067922
528.42	11.47105059
528.617	11.51310534
528.814	11.55696702
529.012	11.60366808
529.209	11.64752924
529.406	11.69609624
529.603	11.74160104
529.8	11.7887448
529.997	11.83428556
530.194	11.88233567
530.391	11.93113491
530.588	11.97995082
530.785	12.03032473
530.982	12.08010063
531.179	12.13140173
531.376	12.1816181
531.573	12.23469091
531.77	12.28943778
531.967	12.34268027
532.164	12.39848971
532.361	12.45441582
532.558	12.51088247
532.755	12.56614872
532.952	12.62196326
533.149	12.67883538
533.346	12.73819159
533.543	12.79552803
533.739	12.8572295
533.936	12.91984033
534.133	12.98322801
534.33	13.04757725
534.527	13.11020238
534.723	13.17582038
534.92	13.24230458
535.117	13.31098681
535.314	13.37927024
535.51	13.45025866
535.707	13.51785486
535.904	13.58841076
536.1	13.66223754
536.297	13.73374254
536.494	13.80618226
536.69	13.88141892
536.887	13.96087609
537.084	14.03706593
537.28	14.11373682
537.477	14.19109932
537.674	14.27125207
537.87	14.35020043
538.067	14.43024107
538.263	14.51111776
538.46	14.59377863
538.656	14.67950698
538.853	14.76209422
539.049	14.84315435
539.246	14.92764975
539.442	15.01290982
539.639	15.09788552
539.835	15.18768455
540.032	15.27641645
540.228	15.36317059
540.424	15.45305179
540.621	15.54457827
540.817	15.63530048
541.014	15.72531383
541.21	15.81954194
541.406	15.91215427
541.603	16.00579237
541.799	16.09934289
541.995	16.19460023
542.191	16.28881163
542.388	16.38446702
542.584	16.48121
542.78	16.57717565
542.976	16.67478638
543.173	16.77583282
543.369	16.87487702
543.565	16.97465558
543.761	17.07689689
543.957	17.17472973
544.154	17.27484381
544.35	17.3757173
544.546	17.47534759
544.742	17.57950836
544.938	17.67998633
545.134	17.78270138
545.33	17.88458899
545.526	17.98689676
545.722	18.0900026
545.919	18.19207065
546.115	18.29540485
546.311	18.40023849
546.507	18.5039495
546.703	18.60511444
546.899	18.70721538
547.095	18.81010711
547.29	18.91070286
547.486	19.01450268
547.682	19.11724065
547.878	19.21754741
548.074	19.31904292
548.27	19.41963176
548.466	19.52369778
548.662	19.6274885
548.858	19.72585486
549.053	19.82909716
549.249	19.92969398
549.445	20.03029054
549.641	20.13051239
549.837	20.23035016
550.032	20.33081704
550.228	20.42868526
550.424	20.52747727
550.62	20.62620811
550.815	20.72735514
551.011	20.82994215
551.207	20.93004684
551.402	21.03190201
551.598	21.13007797
551.794	21.23170944
551.989	21.33199867
552.185	21.43440971
552.381	21.53469922
552.576	21.63378028
552.772	21.73092224
552.967	21.8304222
553.163	21.92765098
553.359	22.02741489
553.554	22.12543852
553.75	22.22385346
553.945	22.32186636
554.141	22.41985316
554.336	22.51999123
554.532	22.61872714
554.727	22.71738135
554.922	22.81575783
555.118	22.90845276
555.313	23.00421339
555.509	23.1006302
555.704	23.19412115
555.899	23.28593785
556.095	23.38112948
556.29	23.47333201
556.486	23.56835371
556.681	23.65866666
556.876	23.7534768
557.071	23.84365729
557.267	23.93797894
557.462	24.02567833
557.657	24.11840826
557.853	24.20711322
558.048	24.29886738
558.243	24.38801116
558.438	24.47538005
558.633	24.56289422
558.829	24.64986669
559.024	24.73332597
559.219	24.82315845
559.414	24.91347366
559.609	24.99955532
559.804	25.09120874
559.999	25.17706941
560.194	25.26340086
560.39	25.35186954
560.585	25.43666204
560.78	25.5269723
560.975	25.61268786
561.17	25.70027684
561.365	25.78399784
561.56	25.86991354
561.755	25.95224279
561.95	26.0414143
562.145	26.12765143
562.34	26.2115174
562.535	26.29902758
562.729	26.38609781
562.924	26.47049573
563.119	26.56004845
563.314	26.64525538
563.509	26.73056411
563.704	26.81736433
563.899	26.89961776
564.093	26.98499332
564.288	27.07205245
564.483	27.15719679
564.678	27.24376017
564.873	27.3286184
565.067	27.41400718
565.262	27.50128293
565.457	27.58855857
565.652	27.67682261
565.846	27.76526359
566.041	27.85161579
566.236	27.93627907
566.43	28.02375482
566.625	28.11086108
566.82	28.19943221
567.014	28.29196264
567.209	28.38034732
567.404	28.47257846
567.598	28.56332776
567.793	28.65755881
567.987	28.74946375
568.182	28.84749754
568.376	28.94178273
568.571	29.03922074
568.765	29.13615399
568.96	29.23736909
569.154	29.33594222
569.349	29.43896222
569.543	29.54204685
569.738	29.64346903
569.932	29.74824673
570.127	29.85436808
570.321	29.96403724
570.515	30.07947602
570.71	30.19589191
570.904	30.31270801
571.098	30.42891226
571.293	30.55180962
571.487	30.67390222
571.681	30.80028578
571.876	30.92853835
572.07	31.06266669
572.264	31.19528726
572.458	31.33426702
572.653	31.47396703
572.847	31.61803142
573.041	31.76440109
573.235	31.91788951
573.43	32.07049629
573.624	32.22998664
573.818	32.39986519
574.012	32.57004292
574.206	32.74766301
574.4	32.92863126
574.594	33.10885478
574.788	33.29455377
574.983	33.48313669
575.177	33.67874204
575.371	33.87635037
575.565	34.08211781
575.759	34.28916853
575.953	34.50343284
576.147	34.72195785
576.341	34.93965191
576.535	35.16586108
576.729	35.39535685
576.923	35.63138834
577.117	35.8709393
577.31	36.11664602
577.504	36.36579069
577.698	36.61934005
577.892	36.87340676
578.086	37.13265704
578.28	37.38929332
578.474	37.65373227
578.668	37.92340166
578.861	38.20008856
579.055	38.4778491
579.249	38.75075261
579.443	39.02799424
579.636	39.30938923
579.83	39.59270721
580.024	39.877355
580.218	40.16276692
580.411	40.45520057
580.605	40.74600164
580.799	41.03842025
580.992	41.3338126
581.186	41.62922953
581.38	41.92427275
581.573	42.2200749
581.767	42.51766583
581.961	42.81460231
582.154	43.11627797
582.348	43.41858403
582.541	43.7242843
582.735	44.02614861
582.928	44.32536226
583.122	44.62631143
583.315	44.93276656
583.509	45.24128066
583.702	45.54570382
583.896	45.84549945
584.089	46.14631138
584.283	46.45025331
584.476	46.74615274
584.67	47.04323486
584.863	47.34170028
585.056	47.63477011
585.25	47.92951245
585.443	48.22107284
585.636	48.50922027
585.83	48.80230215
586.023	49.08956619
586.216	49.37288666
586.41	49.65841212
586.603	49.93072392
586.796	50.20597224
586.989	50.47706464
587.183	50.75203861
587.376	51.01940587
587.569	51.28017554
587.762	51.5385654
587.955	51.79721289
588.149	52.05149678
588.342	52.30303211
588.535	52.55244935
588.728	52.79626728
588.921	53.03269239
589.114	53.2752288
589.307	53.50750446
589.5	53.73311704
589.693	53.96284739
589.886	54.18072918
590.08	54.397875
590.273	54.60701049
590.466	54.81002098
590.659	55.0166554
590.852	55.21589349
591.044	55.41425626
591.237	55.5953633
591.43	55.77728589
591.623	55.95828862
591.816	56.13229343
592.009	56.30383624
592.202	56.47300139
592.395	56.62980432
592.588	56.7852688
592.781	56.94150018
592.973	57.09123356
593.166	57.23497261
593.359	57.37729708
593.552	57.51489718
593.745	57.64588466
593.937	57.77669874
594.13	57.89762492
594.323	58.0176624
594.515	58.13690501
594.708	58.24933303
594.901	58.36251598
595.094	58.46379947
595.286	58.57398231
595.479	58.677505
595.672	58.77596586
595.864	58.87108464
596.057	58.96548844
596.249	59.0525964
596.442	59.14307676
596.635	59.23058663
596.827	59.31117281
597.02	59.39066951
597.212	59.46376502
597.405	59.53692041
597.597	59.60799985
597.79	59.67994914
597.982	59.75095604
598.175	59.82151617
598.367	59.88705087
598.559	59.9478899
598.752	60.00622124
598.944	60.06190728
599.137	60.1252432
599.329	60.18172141
599.521	60.23948163
599.714	60.29408285
599.906	60.35617308
600.098	60.4057259
600.291	60.45189186
600.483	60.50145217
600.675	60.5477117
600.868	60.59291538
601.06	60.63933668
601.252	60.68320999
601.444	60.72621443
601.637	60.76995701
601.829	60.80492293
602.021	60.84090548
602.213	60.87947735
602.405	60.92255999
602.597	60.96217118
602.789	60.99718032
602.982	61.03518276
603.174	61.0693312
603.366	61.10038696
603.558	61.13157748
603.75	61.17089256
603.942	61.19643104
604.134	61.23035674
604.326	61.26338924
604.518	61.3014149
604.71	61.33658746
604.902	61.3628247
605.094	61.39198047
605.286	61.42615193
605.478	61.4600129
605.67	61.49155632
605.862	61.52436837
606.054	61.55379218
606.246	61.57521331
606.437	61.60038596
606.629	61.62834016
606.821	61.6593968
607.013	61.68271458
607.205	61.70771205
607.397	61.7340925
607.588	61.75920062
607.78	61.78121352
607.972	61.80563276
608.164	61.82754734
608.355	61.85529688
608.547	61.87005236
608.739	61.89002394
608.93	61.91314477
609.122	61.93248193
609.314	61.95831617
609.505	61.97340494
609.697	61.99276689
609.889	62.01292834
610.08	62.02980541
610.272	62.05712858
610.463	62.07770938
610.655	62.09863874
610.847	62.12050507
611.038	62.14268459
611.23	62.16424014
611.421	62.18357799
611.613	62.20395682
611.804	62.22042274
611.996	62.24059093
612.187	62.26218968
612.379	62.27532745
612.57	62.29567848
612.761	62.31415468
612.953	62.34050983
613.144	62.36268865
613.336	62.37465401
613.527	62.40150835
613.718	62.4203049
613.91	62.43964996
614.101	62.46077555
614.292	62.47803508
614.483	62.49459859
614.675	62.51264894
614.866	62.53309247
615.057	62.5502974
615.248	62.56555288
615.44	62.58217145
615.631	62.59933485
615.822	62.61579785
616.013	62.62594739
616.204	62.63536392
616.396	62.65210468
616.587	62.67001298
616.778	62.68473424
616.969	62.69810836
617.16	62.7150424
617.351	62.73355762
617.542	62.74882801
617.733	62.76800264
617.924	62.77687396
618.115	62.7960096
618.306	62.81112256
618.497	62.83237108
618.688	62.84109988
618.879	62.84854206
619.07	62.86626925
619.261	62.88474222
619.452	62.90251276
619.643	62.91751397
619.834	62.93378717
620.025	62.95425481
620.216	62.97286033
620.407	62.98744808
620.597	63.00083458
620.788	63.01378744
620.979	63.03055786
621.17	63.04853271
621.361	63.06091986
621.551	63.06950838
621.742	63.08238015
621.933	63.09876868
622.124	63.11036819
622.314	63.12149691
622.505	63.13761752
622.696	63.15048445
622.886	63.17180933
623.077	63.18157545
623.268	63.18910194
623.458	63.20548586
623.649	63.21491758
623.84	63.22541475
624.03	63.23577621
624.221	63.24656212
624.411	63.26453781
624.602	63.2798157
624.792	63.29748586
624.983	63.31079403
625.173	63.32280718
625.364	63.34127587
625.554	63.35349371
625.745	63.36173706
625.935	63.37168476
626.126	63.3899814
626.316	63.40269875
626.507	63.40448987
626.697	63.42285554
626.887	63.43231895
627.078	63.45659855
627.268	63.47675705
627.458	63.4878545
627.649	63.50732036
627.839	63.51966395
628.029	63.53043209
628.22	63.54322188
628.41	63.55045617
628.6	63.55654632
628.79	63.56685217
628.981	63.57933986
629.171	63.58986764
629.361	63.59789055
629.551	63.61429104
629.741	63.62271005
629.932	63.63707786
630.122	63.64101401
630.312	63.65567664
630.502	63.6726581
630.692	63.68450728
630.882	63.69740189
631.072	63.69934981
631.262	63.70712438
631.452	63.71657703
631.642	63.72982463
631.832	63.74912369
632.022	63.76793274
632.212	63.78333529
632.402	63.80054945
632.592	63.82011349
632.782	63.83392906
632.972	63.84719329
633.162	63.86050874
633.352	63.87378574
633.542	63.88114197
633.732	63.89754369
633.922	63.91293388
634.111	63.92526438
634.301	63.92993978
634.491	63.9461675
634.681	63.96240943
634.871	63.97113391
635.06	63.98450355
635.25	63.99439049
635.44	64.00223745
635.63	64.00796183
635.819	64.01261126
636.009	64.02576165
636.199	64.03901176
636.388	64.0469428
636.578	64.05284408
636.768	64.06165562
636.957	64.06284982
637.147	64.07732251
637.337	64.08532942
637.526	64.09677478
637.716	64.1101752
637.905	64.12280748
638.095	64.13880749
638.284	64.15838193
638.474	64.15874826
638.663	64.16434595
638.853	64.17536117
639.042	64.18984236
639.232	64.19913144
639.421	64.21134718
639.611	64.21974151
639.8	64.23542741
639.99	64.246334
640.179	64.25956536
640.368	64.26710536
640.558	64.28062166
640.747	64.28617341
640.936	64.30380322
641.126	64.30900751
641.315	64.31916109
641.504	64.32869403
641.694	64.33644157
641.883	64.34518003
642.072	64.3480958
642.261	64.35570078
642.451	64.37813288
642.64	64.38694686
642.829	64.39707979
643.018	64.3969642
643.207	64.4036992
643.397	64.41401677
643.586	64.42538428
643.775	64.42867147
643.964	64.43379717
644.153	64.43991539
644.342	64.45296583
644.531	64.46149244
644.72	64.47674608
644.909	64.48547232
645.098	64.49434087
645.287	64.50630833
645.476	64.51809119
645.665	64.52936232
645.854	64.53786732
646.043	64.55486579
646.232	64.56102765
646.421	64.56243692
646.61	64.58120223
646.799	64.58776795
646.988	64.59979973
647.177	64.6187404
647.365	64.62844395
647.554	64.64532429
647.743	64.65201765
647.932	64.66048244
648.121	64.6650667
648.309	64.67684804
648.498	64.6899929
648.687	64.69803422
648.876	64.70429747
649.064	64.71002657
649.253	64.71851375
649.442	64.72978293
649.63	64.74187046
649.819	64.74786008
650.008	64.75800139
650.196	64.77625549
650.385	64.78546273
650.574	64.78485556
650.762	64.79848073
650.951	64.81296965
651.139	64.81450331
651.328	64.8213974
651.516	64.82868746
651.705	64.84919602
651.893	64.86164071
652.082	64.87013443
652.27	64.86806222
652.459	64.87830876
652.647	64.89088322
652.836	64.90893705
653.024	64.92398657
653.213	64.93145142
653.401	64.93817268
653.589	64.93950405
653.778	64.96107579
653.966	64.97185552
654.154	64.98274081
654.343	64.99616902
654.531	65.00577031
654.719	65.01853879
654.908	65.02912279
655.096	65.04556634
655.284	65.06347378
655.472	65.0732382
655.661	65.07764436
655.849	65.0775615
656.037	65.0859711
656.225	65.10586567
656.413	65.12151549
656.601	65.13356279
656.79	65.13875411
656.978	65.14457805
657.166	65.15447934
657.354	65.16605768
657.542	65.18478703
657.73	65.17958446
657.918	65.18924665
658.106	65.19871945
658.294	65.21122486
658.482	65.22479906
658.67	65.22935059
658.858	65.23261596
659.046	65.24089769
659.234	65.24591556
659.422	65.2501904
659.61	65.26479393
659.798	65.2884272
659.986	65.30093912
660.173	65.31195455
660.361	65.31289199
660.549	65.32225147
660.737	65.33317171
660.925	65.33964552
661.113	65.34927154
661.3	65.3605694
661.488	65.36227836
661.676	65.37463643
661.864	65.38206505
662.051	65.38979099
662.239	65.39785047
662.427	65.41117096
662.614	65.41446963
662.802	65.42829125
662.99	65.43992609
663.177	65.4537961
663.365	65.46268633
663.553	65.46295741
663.74	65.46486532
663.928	65.47556756
664.115	65.47971738
664.303	65.49095465
664.49	65.48306896
664.678	65.48260368
664.866	65.49803473
665.053	65.50510187
665.24	65.50636537
665.428	65.51327566
665.615	65.52813621
665.803	65.52610025
665.99	65.52807276
666.178	65.53110914
666.365	65.53454745
666.552	65.54703439
666.74	65.56053879
666.927	65.56268633
667.114	65.56645876
667.302	65.5718122
667.489	65.57940174
667.676	65.58842727
667.864	65.59913521
668.051	65.60072906
668.238	65.59482697
668.425	65.61142492
668.613	65.62707908
668.8	65.63001612
668.987	65.63478404
669.174	65.64630659
669.361	65.65348137
669.548	65.65873712
669.736	65.6760526
669.923	65.68017582
670.11	65.68452334
670.297	65.69998299
670.484	65.70861076
670.671	65.71093589
670.858	65.71781649
671.045	65.7197383
671.232	65.72938124
671.419	65.74387588
671.606	65.74905336
671.793	65.7458426
671.98	65.75985209
672.167	65.77462918
672.354	65.78618669
672.541	65.79045593
672.728	65.80108757
672.915	65.81402881
673.101	65.81890287
673.288	65.83306568
673.475	65.8401501
673.662	65.83855616
673.849	65.84951435
674.035	65.85849775
674.222	65.85698363
674.409	65.87165042
674.596	65.88374869
674.783	65.89876903
674.969	65.91600932
675.156	65.93214783
675.343	65.93621844
675.529	65.9414433
675.716	65.96180412
675.903	65.963561
676.089	65.97609856
676.276	65.98049795
676.462	66.00054824
676.649	66.00945249
676.836	66.01575178
677.022	66.02867683
677.209	66.03282831
677.395	66.04330562
677.582	66.05945728
677.768	66.07197149
677.955	66.0915898
678.141	66.10821726
678.328	66.10961372
678.514	66.11817611
678.701	66.13066406
678.887	66.13268864
679.073	66.13224849
679.26	66.14821824
679.446	66.16305249
679.632	66.17161834
679.819	66.20124588
680.005	66.20775086
680.191	66.22209507
680.378	66.21716272
680.564	66.2228779
680.75	66.22788123
680.936	66.23716521
681.123	66.25898404
681.309	66.26962723
681.495	66.28283001
681.681	66.2982742
681.867	66.3069102
682.054	66.31370363
682.24	66.3274322
682.426	66.33358356
682.612	66.33260861
682.798	66.34749229
682.984	66.37299778
683.17	66.38508685
683.356	66.40824976
683.542	66.42206566
683.728	66.41851187
683.914	66.43973656
684.1	66.46048637
684.286	66.47646879
684.472	66.49817502
684.658	66.52444866
684.844	66.53440988
685.03	66.54863978
685.216	66.56066491
685.402	66.56993151
685.588	66.57799351
685.774	66.58620315
685.96	66.60167525
686.145	66.6104256
686.331	66.62570061
686.517	66.64934554
686.703	66.66749522
686.889	66.67059263
687.074	66.68039798
687.26	66.69183043
687.446	66.70870568
687.631	66.73123448
687.817	66.73787357
688.003	66.75516669
688.189	66.78718437
688.374	66.80490336
688.56	66.81999622
688.745	66.84169329
688.931	66.85346033
689.117	66.87375927
689.302	66.89814105
689.488	66.91600192
689.673	66.92549488
689.859	66.94170399
690.044	66.96461326
690.23	66.97842245
690.415	67.00743893
690.601	67.02996657
690.786	67.06214413
690.972	67.07642711
691.157	67.08134813
691.343	67.09535512
691.528	67.11858794
691.713	67.14186564
691.899	67.14997185
692.084	67.14839432
692.269	67.16103797
692.455	67.17745934
692.64	67.18450849
692.825	67.2001837
693.011	67.21715449
693.196	67.22521707
693.381	67.24278535
693.566	67.27319704
693.752	67.28324502
693.937	67.30309502
694.122	67.31853019
694.307	67.32260196
694.492	67.33012365
694.678	67.32362419
694.863	67.35136166
695.048	67.37128778
695.233	67.38309557
695.418	67.38899541
695.603	67.39906175
695.788	67.41434375
695.973	67.42991001
696.158	67.44149834
696.343	67.44946002
696.528	67.47389584
696.713	67.49011623
696.898	67.50076653
697.083	67.51152019
697.268	67.53235943
697.453	67.54895348
697.638	67.56553155
697.823	67.57360289
698.008	67.5876821
698.192	67.59794365
698.377	67.61568672
698.562	67.63462704
698.747	67.64171217
698.932	67.65508495
699.117	67.66252695
699.301	67.67379306
699.486	67.67884497
699.671	67.69064037
699.856	67.7041558
700.04	67.711312
700.225	67.72975194
700.41	67.74320181
700.594	67.75519585
700.779	67.77016745
700.964	67.79896685
701.148	67.79752378
701.333	67.8125104
701.517	67.8276047
701.702	67.84178558
701.887	67.85496849
702.071	67.87707029
702.256	67.8764668
702.44	67.88336782
702.625	67.88950034
702.809	67.91079827
702.994	67.92856201
703.178	67.94361765
703.362	67.96311217
703.547	67.97484001
703.731	67.99414031
703.916	68.01257181
704.1	68.02298865
704.284	68.02929396
704.469	68.03961233
704.653	68.04468809
704.837	68.04465911
705.022	68.07190559
705.206	68.07666661
705.39	68.08767372
705.575	68.10183837
705.759	68.11124785
705.943	68.10953701
706.127	68.13559118
706.311	68.15080923
706.496	68.15876919
706.68	68.16398763
706.864	68.15827962
707.048	68.17048371
707.232	68.17881757
707.416	68.19557192
707.6	68.19634963
707.785	68.20888827
707.969	68.22613993
708.153	68.23835354
708.337	68.24404889
708.521	68.25547944
708.705	68.27470158
708.889	68.26833793
709.073	68.26866383
709.257	68.26937978
709.441	68.26969047
709.624	68.28960976
709.808	68.30601036
709.992	68.30745509
710.176	68.32545223
710.36	68.33983719
710.544	68.3423976
710.728	68.36740255
710.912	68.37735451
711.095	68.39212076
711.279	68.39677446
711.463	68.4188763
711.647	68.42890733
711.83	68.42570795
712.014	68.4275531
712.198	68.443461
712.382	68.45459066
712.565	68.45334289
712.749	68.46688599
712.933	68.47953387
713.116	68.49894175
713.3	68.52453395
713.483	68.52405572
713.667	68.52504063
713.851	68.53094118
714.034	68.53576501
714.218	68.54624318
714.401	68.55483844
714.585	68.56519516
714.768	68.57125547
714.952	68.58143532
715.135	68.59624755
715.319	68.5965514
715.502	68.59835849
715.686	68.61033608
715.869	68.62467973
716.052	68.63050533
716.236	68.64144467
716.419	68.65503983
716.602	68.66224404
716.786	68.67715237
716.969	68.68254487
717.152	68.67837921
717.336	68.68829663
717.519	68.69931218
717.702	68.70354651
717.885	68.70987526
718.069	68.71577681
718.252	68.72793355
718.435	68.73793199
718.618	68.75358762
718.801	68.74994247
718.985	68.75138189
719.168	68.7642457
719.351	68.77036121
719.534	68.78711248
719.717	68.79616325
719.9	68.80690483
720.083	68.80678086
720.266	68.80797096
720.449	68.81925212
720.632	68.82207093
720.815	68.83896608
720.998	68.84497404
721.181	68.86334609
721.364	68.87736512
721.547	68.88729223
721.73	68.90070406
721.913	68.90983339
722.096	68.90846118
722.279	68.90662317
722.461	68.90170769
722.644	68.91445175
722.827	68.92313094
723.01	68.92712234
723.193	68.93584446
723.376	68.9331574
723.558	68.94215169
723.741	68.94463192
723.924	68.96026793
724.107	68.96817906
724.289	68.96877993
724.472	68.97105722
724.655	68.97128831
724.837	68.98397017
725.02	68.97993549
725.203	68.98275758
725.385	68.99165332
725.568	68.98766186
725.75	68.9917706
725.933	68.99874117
726.115	68.99561716
726.298	69.00208585
726.481	69.00606097
726.663	69.00376894
726.845	69.00612787
727.028	69.00885751
727.21	69.00563114
727.393	69.00781325
727.575	69.01029503
727.758	69.00784682
727.94	69.01204153
728.122	69.01341374
728.305	69.02192001
728.487	69.01790045
728.67	69.02154204
728.852	69.01746515
729.034	69.00906152
729.216	69.01855686
729.399	69.02495261
729.581	69.02391039
729.763	69.03514238
729.945	69.04216435
730.128	69.0484197
730.31	69.0648868
730.492	69.07035338
730.674	69.07363496
730.856	69.0855666
731.039	69.0893259
731.221	69.09521356
731.403	69.09563416
731.585	69.11109389
731.767	69.11380905
731.949	69.12253071
732.131	69.12791913
732.313	69.13953946
732.495	69.1430413
732.677	69.15029755
732.859	69.15942727
733.041	69.15023663
733.223	69.15115127
733.405	69.16287125
733.587	69.16457867
733.769	69.18039888
733.951	69.18321045
734.132	69.16917952
734.314	69.17460005
734.496	69.17719321
734.678	69.16895023
734.86	69.18192375
735.042	69.17721745
735.223	69.19247436
735.405	69.18699686
735.587	69.18512011
735.769	69.17716156
735.95	69.17933124
736.132	69.18243547
736.314	69.17494068
736.495	69.17731041
736.677	69.19296654
736.859	69.19416891
737.04	69.19790915
737.222	69.19965171
737.403	69.20245939
737.585	69.20364435
737.767	69.2052939
737.948	69.21498669
738.13	69.21681641
738.311	69.22298547
738.493	69.2252022
738.674	69.21888382
738.856	69.22879767
739.037	69.22105574
739.219	69.21335606
739.4	69.21984907
739.581	69.23919374
739.763	69.24174373
739.944	69.241351
740.125	69.25372518
740.307	69.25630863
740.488	69.24166421
740.669	69.24682103
740.851	69.25321512
741.032	69.26087502
741.213	69.26212617
741.395	69.25835495
741.576	69.26835815
741.757	69.26907558
741.938	69.26370836
742.119	69.260522
742.301	69.26952471
742.482	69.28207536
742.663	69.28962807
742.844	69.29682874
743.025	69.31169453
743.206	69.31329716
743.387	69.30526366
743.568	69.30585129
743.749	69.31330995
743.93	69.30914287
744.111	69.31670735
744.292	69.3251847
744.473	69.34319143
744.654	69.34287124
744.835	69.33814164
745.016	69.3435246
745.197	69.34867786
745.378	69.34674263
745.559	69.35671848
745.74	69.37171835
745.921	69.39167235
746.102	69.40444886
746.282	69.40436947
746.463	69.40479151
746.644	69.4174872
746.825	69.42451817
747.006	69.43782978
747.186	69.45023831
747.367	69.45324278
747.548	69.45597952
747.728	69.46976939
747.909	69.48341775
748.09	69.4934081
748.27	69.49789629
748.451	69.50749894
748.632	69.51340625
748.812	69.51510612
748.993	69.53821295
749.173	69.54605311
749.354	69.5528139
749.535	69.55596405
749.715	69.55545907
749.896	69.54496963
750.076	69.5551321
750.257	69.5610126
750.437	69.56166574
750.618	69.56537525
750.798	69.57395264
750.978	69.58391829
751.159	69.59477742
751.339	69.59321219
751.52	69.58917269
751.7	69.59784669
751.88	69.60642574
752.061	69.60464235
752.241	69.61319139
752.421	69.61074142
752.601	69.62150659
752.782	69.61824697
752.962	69.62148478
753.142	69.63382154
753.322	69.63570992
753.503	69.64028732
753.683	69.64547352
753.863	69.6404774
754.043	69.64868291
754.223	69.64111105
754.403	69.65462431
754.583	69.64934059
754.764	69.64986703
754.944	69.65404328
755.124	69.66886762
755.304	69.68625814
755.484	69.67596384
755.664	69.6825898
755.844	69.698427
756.024	69.709744
756.204	69.72977583
756.384	69.73878814
756.564	69.73271802
756.743	69.74904078
756.923	69.747456
757.103	69.76636719
757.283	69.76678792
757.463	69.79216406
757.643	69.80680211
757.823	69.81045651
758.002	69.83950143
758.182	69.83537427
758.362	69.85097612
758.542	69.85647612
758.721	69.84870145
758.901	69.85854407
759.081	69.87028577
759.261	69.88449859
759.44	69.89274082
759.62	69.88104314
759.8	69.86973525
759.979	69.89044571
760.159	69.90460601
760.338	69.9108593
760.518	69.90812288
760.698	69.91094814
760.877	69.92097279
761.057	69.93416176
761.236	69.93609047
761.416	69.94826977
761.595	69.97376451
761.775	69.97867574
761.954	69.98313741
762.133	69.98685254
762.313	69.9986433
762.492	70.01444004
762.672	70.0173336
762.851	70.00806434
763.03	70.00967652
763.21	70.01234378
763.389	70.02091955
763.568	70.03929116
763.748	70.03940997
763.927	70.04601924
764.106	70.04604477
764.286	70.06078822
764.465	70.07525353
764.644	70.07942192
764.823	70.08548516
765.002	70.09378988
765.182	70.09404991
765.361	70.08823785
765.54	70.10400793
765.719	70.11117742
765.898	70.11754408
766.077	70.11637191
766.256	70.12955061
766.435	70.13498769
766.614	70.14764372
766.793	70.15216128
766.972	70.15544606
767.151	70.16507194
767.33	70.16225033
767.509	70.16017503
767.688	70.1568735
767.867	70.16527017
768.046	70.15835225
768.225	70.14815574
768.404	70.14912137
768.583	70.15248245
768.762	70.15607646
768.94	70.17056396
769.119	70.17559804
769.298	70.16335668
769.477	70.16545513
769.656	70.17766704
769.834	70.18589577
770.013	70.19146137
770.192	70.19404323
770.37	70.19913476
770.549	70.20403265
770.728	70.20647939
770.906	70.20561021
771.085	70.21286913
771.264	70.22295188
771.442	70.23629133
771.621	70.24369085
771.799	70.25349366
771.978	70.26842481
772.157	70.27549425
772.335	70.27006443
772.514	70.27498055
772.692	70.27448321
772.871	70.2740454
773.049	70.28519431
773.228	70.30105955
773.406	70.29950881
773.584	70.3094989
773.763	70.31322162
773.941	70.31861948
774.119	70.32757275
774.298	70.33170562
774.476	70.34432472
774.655	70.35441888
774.833	70.35480921
775.011	70.35023645
775.189	70.34722644
775.368	70.36422503
775.546	70.36520045
775.724	70.36574224
775.902	70.37396517
776.08	70.39344467
776.259	70.39306106
776.437	70.3943803
776.615	70.39128652
776.793	70.392033
776.971	70.38210493
777.149	70.37475516
777.327	70.36771298
777.505	70.35958102
777.683	70.36728466
777.861	70.36751963
778.04	70.38172742
778.218	70.3709002
778.395	70.37089001
778.573	70.36934393
778.751	70.37564233
778.929	70.39188472
779.107	70.38485289
779.285	70.39236921
779.463	70.39860561
779.641	70.38499705
779.819	70.37416568
779.997	70.37882549
780.174	70.38280268
780.352	70.3913928
780.53	70.39073186
780.708	70.39756724
780.886	70.40288614
781.063	70.41155278
781.241	70.42382777
781.419	70.42768094
781.596	70.43388792
781.774	70.43381537
781.952	70.44628603
782.129	70.45415192
782.307	70.46277826
782.485	70.4689325
782.662	70.4644496
782.84	70.45644609
783.017	70.46453807
783.195	70.46378277
783.372	70.48306687
783.55	70.49338579
783.727	70.5046236
783.905	70.51305475
784.082	70.53056155
784.26	70.54882151
784.437	70.55012984
784.615	70.5509482
784.792	70.54572616
784.969	70.55276126
785.147	70.55537903
785.324	70.55565856
785.501	70.55310969
785.679	70.56343142
785.856	70.56572829
786.033	70.58496462
786.211	70.59227345
786.388	70.58379802
786.565	70.60438442
786.742	70.59822692
786.92	70.60589156
787.097	70.60985412
787.274	70.6113224
787.451	70.61780022
787.628	70.60713746
787.805	70.59782678
787.982	70.58601796
788.16	70.57645704
788.337	70.59821065
788.514	70.61760135
788.691	70.61431256
788.868	70.61360382
789.045	70.62122279
789.222	70.6132822
789.399	70.60803161
789.576	70.60876702
789.753	70.61187048
789.93	70.61810293
790.106	70.61785959
790.283	70.60735308
790.46	70.6192118
790.637	70.60912509
790.814	70.61698594
790.991	70.62513516
791.168	70.62153663
791.344	70.63866136
791.521	70.64073248
791.698	70.64783052
791.875	70.65991703
792.051	70.64586582
792.228	70.63469163
792.405	70.62840396
792.581	70.64646065
792.758	70.64325247
792.935	70.65284494
793.111	70.66034293
793.288	70.65516879
793.465	70.63805479
793.641	70.62528538
793.818	70.6362114
793.994	70.6385557
794.171	70.63922969
794.347	70.65019761
794.524	70.62941756
794.7	70.63325551
794.877	70.6230663
795.053	70.61431545
795.23	70.6213638
795.406	70.62053318
795.583	70.62560462
795.759	70.63736253
795.935	70.64717011
796.112	70.66806678
796.288	70.65105321
796.464	70.65606651
796.641	70.65697089
796.817	70.64633018
796.993	70.66494212
797.169	70.67154816
797.346	70.68527145
797.522	70.67725155
797.698	70.68758916
797.874	70.6837544
798.051	70.68046735
798.227	70.69687564
798.403	70.70085809
798.579	70.71567588
798.755	70.71828011
798.931	70.73011918
799.107	70.72966543
799.283	70.74731929
799.459	70.74868338
799.635	70.73001401
799.811	70.72418579
799.987	70.73367883
800.163	70.7258207
800.339	70.71233876
800.515	70.73296121
800.691	70.72529483
800.867	70.72455433
801.043	70.71722107
801.219	70.73000557
801.395	70.72867659
801.571	70.7235517
801.746	70.73512883
801.922	70.72174636
802.098	70.72174092
802.274	70.72743987
802.45	70.73239992
802.625	70.7299266
802.801	70.73276803
802.977	70.71395182
803.152	70.72347654
803.328	70.74887629
803.504	70.73289571
803.679	70.72058067
803.855	70.70465733
804.031	70.71590206
804.206	70.7090096
804.382	70.71433962
804.557	70.73256349
804.733	70.72786146
804.909	70.72806039
805.084	70.72192139
805.26	70.70502518
805.435	70.69327918
805.61	70.70277636
805.786	70.70381713
805.961	70.69611768
806.137	70.69559093
806.312	70.68357441
806.488	70.69533287
806.663	70.69094771
806.838	70.68271985
807.014	70.68393515
807.189	70.69563855
807.364	70.68186898
807.54	70.69300614
807.715	70.69261773
807.89	70.67279678
808.065	70.66802195
808.241	70.65138427
808.416	70.65204375
808.591	70.66300166
808.766	70.67827375
808.941	70.70206277
809.116	70.69915683
809.291	70.67556954
809.467	70.6727216
809.642	70.67237447
809.817	70.67075467
809.992	70.66831911
810.167	70.64709943
810.342	70.6429996
810.517	70.64413325
810.692	70.64442642
810.867	70.65637544
811.042	70.68614837
811.217	70.70547957
811.392	70.70844753
811.567	70.721077
811.741	70.71645877
811.916	70.69733355
812.091	70.69640797
812.266	70.69351929
812.441	70.67420905
812.616	70.70938401
812.79	70.71768618
812.965	70.74923052
813.14	70.7288056
813.315	70.70545586
813.489	70.71505198
813.664	70.73149445
813.839	70.73042168
814.013	70.73204283
814.188	70.70205005
814.363	70.68363971
814.537	70.68255248
814.712	70.68155007
814.887	70.68188568
815.061	70.6827356
815.236	70.68897691
815.41	70.69156713
815.585	70.7230377
815.759	70.75445113
815.934	70.73194063
816.108	70.74515591
816.283	70.70129535
816.457	70.70489155
816.631	70.72244338
816.806	70.71482845
816.98	70.72036383
817.155	70.71402854
817.329	70.68382438
817.503	70.68112488
817.678	70.70909137
817.852	70.7550243
818.026	70.7860886
818.201	70.77561902
818.375	70.7796301
818.549	70.79667133
818.723	70.79553671
818.897	70.7657685
819.072	70.7694161
819.246	70.7494419
819.42	70.74973418
819.594	70.77816898
819.768	70.78667506
819.942	70.78716057
820.116	70.77333928
820.29	70.74501387
820.465	70.75144048
820.639	70.76449487
820.813	70.75772502
820.987	70.7844372
821.161	70.80360144
821.335	70.78317721
821.509	70.77535264
821.682	70.75708903
821.856	70.77431637
822.03	70.75859644
822.204	70.73816264
822.378	70.75040993
822.552	70.75832984
822.726	70.76578386
822.9	70.79373827
823.073	70.79348054
823.247	70.77515328
823.421	70.79585526
823.595	70.85003583
823.768	70.84202439
823.942	70.84861974
824.116	70.86892355
824.289	70.87586039
824.463	70.89776177
824.637	70.89416348
824.81	70.8836024
824.984	70.89302089
825.158	70.84922131
825.331	70.81360732
825.505	70.78499177
825.678	70.79019797
825.852	70.80181547
826.025	70.822126
826.199	70.8433888
826.372	70.83228033
826.546	70.84222164
826.719	70.81711822
826.893	70.82151167
827.066	70.8040665
827.24	70.75020329
827.413	70.79479205
827.586	70.82625114
827.76	70.81385519
827.933	70.83295243
828.106	70.81536647
828.28	70.80778674
828.453	70.82625437
828.626	70.82606448
828.799	70.86641338
828.973	70.89435871
829.146	70.89537349
829.319	70.90995752
829.492	70.90066013
829.665	70.88062162
829.839	70.90626983
830.012	70.90187082
830.185	70.87867433
830.358	70.89058039
830.531	70.87997099
830.704	70.85160469
830.877	70.86069076
831.05	70.86824548
831.223	70.84118586
831.396	70.8402164
831.569	70.81339085
831.742	70.80070328
831.915	70.83539014
832.088	70.79641058
832.261	70.81774053
832.434	70.77133975
832.607	70.77977517
832.779	70.7973796
832.952	70.79619089
833.125	70.79068588
833.298	70.77642345
833.471	70.77910788
833.643	70.80744907
833.816	70.77940136
833.989	70.79876642
834.162	70.8257658
834.334	70.82484068
834.507	70.85655849
834.68	70.79830762
834.852	70.8099046
835.025	70.81138055
835.198	70.8233796
835.37	70.83504313
835.543	70.82033452
835.715	70.85156045
835.888	70.87049878
836.061	70.91550384
836.233	70.89651893
836.406	70.87934926
836.578	70.87831014
836.751	70.90816763
836.923	70.93906183
837.095	70.880916
837.268	70.88447785
837.44	70.94052198
837.613	70.94969469
837.785	70.93387675
837.957	70.97926534
838.13	70.96572319
838.302	71.03379885
838.474	71.03676584
838.647	71.04226473
838.819	71.06121409
838.991	71.03238482
839.163	70.9865883
839.336	70.98042233
839.508	70.94241991
839.68	70.92440949
839.852	70.89422955
840.024	70.877962
840.196	70.872341
840.368	70.8698865
840.541	70.87516632
840.713	70.95292064
840.885	70.95514176
841.057	70.95793122
841.229	70.91398572
841.401	70.92503391
841.573	70.88132299
841.745	70.88562633
841.917	70.84172636
842.089	70.85355063
842.261	70.86528371
842.432	70.82731928
842.604	70.93194189
842.776	70.98682524
842.948	71.00777281
843.12	71.04150678
843.292	71.03714314
843.464	71.09756274
843.635	71.11364922
843.807	71.08690042
843.979	71.10192921
844.151	71.09818649
844.322	71.04662011
844.494	71.00908802
844.666	70.96019719
844.837	70.90171997
845.009	70.83956226
845.181	70.82663748
845.352	70.82475485
845.524	70.84900658
845.695	70.85461971
845.867	70.82134412
846.039	70.83674647
846.21	70.70222695
846.382	70.66782551
846.553	70.62829134
846.725	70.59761648
846.896	70.57863149
847.068	70.56510306
847.239	70.59632816
847.41	70.63499864
847.582	70.58262948
847.753	70.53310038
847.925	70.5666738
848.096	70.59907149
848.267	70.62438649
848.439	70.72124475
848.61	70.75168603
848.781	70.77052962
848.952	70.75279766
849.124	70.72552142
849.295	70.6534667
849.466	70.65198903
849.637	70.63737749
849.808	70.72128497
849.98	70.70094747
850.151	70.71762035
850.322	70.69280821
850.493	70.72374451
850.664	70.70435512
850.835	70.71789141
851.006	70.69251748
851.177	70.71412644
851.348	70.69846484
851.519	70.66558425
851.69	70.63710682
851.861	70.66380095
852.032	70.65925444
852.203	70.66171349
852.374	70.70318278
852.545	70.67226369
852.716	70.68835675
852.887	70.68107158
853.057	70.70299523
853.228	70.68335847
853.399	70.66531889
853.57	70.72584666
853.741	70.73617477
853.911	70.7635141
854.082	70.72476245
854.253	70.73362101
854.424	70.70537638
854.594	70.76006086
854.765	70.71885361
854.936	70.74548094
855.106	70.77556709
855.277	70.77206618
855.447	70.73093355
855.618	70.68843858
855.789	70.69039981
855.959	70.66236474
856.13	70.68190637
856.3	70.66243232
856.471	70.63648347
856.641	70.5915492
856.812	70.63239639
856.982	70.60461089
857.153	70.55707489
857.323	70.54720049
857.493	70.51509715
857.664	70.55347606
857.834	70.60719316
858.004	70.58686745
858.175	70.52979753
858.345	70.47843875
858.515	70.47155616
858.686	70.36382864
858.856	70.36107636
859.026	70.31876973
859.196	70.32221148
859.367	70.34049546
859.537	70.39737681
859.707	70.42756677
859.877	70.38792375
860.047	70.42678167
860.217	70.41693525
860.387	70.35870078
860.558	70.39294828
860.728	70.3032382
860.898	70.27842116
861.068	70.30075298
861.238	70.23580147
861.408	70.03543962
861.578	70.07191898
861.748	70.07757904
861.918	70.1801559
862.088	70.12793658
862.257	70.15155536
862.427	70.04774114
862.597	70.05662977
862.767	70.09545108
862.937	70.08133955
863.107	70.0244677
863.277	69.93517478
863.446	69.9431932
863.616	69.9740674
863.786	70.01592674
863.956	70.06703135
864.125	69.9639852
864.295	70.00714838
864.465	69.94406508
864.634	69.93277769
864.804	69.91574017
864.974	69.97589613
865.143	69.8921437
865.313	69.79992136
865.482	69.69992012
865.652	69.68298156
865.822	69.61535548
865.991	69.72219958
866.161	69.79207126
866.33	69.73544618
866.5	69.67399039
866.669	69.6797349
866.838	69.72014103
867.008	69.66799613
867.177	69.63801725
867.347	69.63807225
867.516	69.60295891
867.685	69.62278491
867.855	69.63354122
868.024	69.63660702
868.193	69.52928962
868.363	69.54205404
868.532	69.48776561
868.701	69.44223306
868.87	69.47027522
869.04	69.53175805
869.209	69.47672024
869.378	69.56913642
869.547	69.42810922
869.716	69.31985924
869.885	69.23446383
870.055	69.24901354
870.224	69.15238134
870.393	69.16839972
870.562	69.17453332
870.731	69.08361011
870.9	69.05701235
871.069	68.98354114
871.238	68.96815192
871.407	68.95516409
871.576	69.05104715
871.745	69.20042593
871.914	69.1794792
872.083	69.26575576
872.251	69.26663043
872.42	69.24704957
872.589	69.13927718
872.758	69.34416889
872.927	69.23088459
873.096	69.31127538
873.264	69.36849301
873.433	69.29642791
873.602	69.23070513
873.771	69.25125219
873.939	69.10517228
874.108	69.06252824
874.277	69.07582938
874.445	69.02925005
874.614	69.05192324
874.783	69.04363789
874.951	69.00421308
875.12	68.80789958
875.288	68.58947579
875.457	68.5461686
875.625	68.47614785
875.794	68.49674696
875.962	68.517927
876.131	68.58792114
876.299	68.42735927
876.468	68.56707563
876.636	68.62583543
876.805	68.47420564
876.973	68.55525905
877.141	68.63169542
877.31	68.58735543
877.478	68.65213168
877.647	68.66449941
877.815	68.65140649
877.983	68.63303499
878.151	68.5628019
878.32	68.61955779
878.488	68.47114978
878.656	68.60360294
878.824	68.65770834
878.992	68.85244675
879.161	69.02483839
879.329	68.93795522
879.497	68.74797092
879.665	68.61159167
879.833	68.49636111
880.001	68.46958217
880.169	68.41394145
880.337	68.45195934
880.505	68.33308128
880.673	68.16381887
880.841	68.15030646
881.009	68.08214508
881.177	68.15166115
881.345	68.19598338
881.513	68.06676405
881.681	68.22906154
881.849	68.35528311
882.017	68.4732562
882.185	68.39253283
882.352	68.56480975
882.52	68.36221701
882.688	68.22356699
882.856	68.39554144
883.024	68.60619227
883.191	68.75671584
883.359	68.73455846
883.527	68.57554309
883.694	68.62368117
883.862	68.58724732
884.03	68.52800025
884.197	68.66298425
884.365	68.51380193
884.533	68.48131213
884.7	68.1911803
884.868	68.09857127
885.035	68.20415484
885.203	67.8021256
885.37	67.50240491
885.538	67.47171517
885.705	67.4266299
885.873	67.17146998
886.04	67.13171002
886.208	66.99522872
886.375	66.69989859
886.542	66.43478078
886.71	66.19390928
886.877	66.34078561
