Data from claw2_Reflection_09-31-30-374.txt Node
Date: Wed Dec 06 09:31:30 AEST 2023
User: uqkchene_local
Spectrometer: USB4E02642
Trigger mode: 4
Integration Time (sec): 1.700000E-2
Scans to average: 10
Electric dark correction enabled: true
Nonlinearity correction enabled: false
Boxcar width: 10
XAxis mode: Wavelengths
Number of Pixels in Spectrum: 3648
>>>>>Begin Spectral Data<<<<<
179.217	183.94477318
179.432	153.63128492
179.647	114.21835328
179.862	160.95238095
180.077	203.4965035
180.293	190.58524173
180.508	397.20101781
180.723	-150.25125628
180.938	11.68568616
181.153	17.4114829
181.368	16.92901947
181.583	17.4813385
181.798	17.63479325
182.013	17.87035219
182.228	17.90885394
182.443	17.63075738
182.658	17.55254089
182.873	17.6328031
183.088	17.81786258
183.303	17.82935883
183.518	17.73825496
183.733	17.62663561
183.948	17.41489157
184.162	17.30415823
184.377	17.21584137
184.592	17.27100801
184.807	17.37898984
185.022	17.34035382
185.237	17.33867347
185.452	17.35803431
185.667	17.1617961
185.882	17.21622891
186.096	17.16116618
186.311	17.05450073
186.526	16.88278076
186.741	16.85690178
186.956	16.84892153
187.17	16.86527142
187.385	16.82311928
187.6	16.85893773
187.815	16.85497213
188.03	16.64680031
188.244	16.54861454
188.459	16.59062822
188.674	16.77940416
188.889	16.75692004
189.103	16.81824668
189.318	16.55729562
189.533	16.38118321
189.747	16.45482652
189.962	16.45945333
190.177	16.40606646
190.391	16.34727907
190.606	16.43611369
190.821	16.60959145
191.035	16.70091684
191.25	16.76328802
191.465	16.73083115
191.679	16.59299864
191.894	16.69478379
192.109	16.69463439
192.323	16.76341123
192.538	16.98299609
192.752	17.08434947
192.967	17.15435122
193.181	16.96999234
193.396	16.99957678
193.611	16.98435628
193.825	17.0769911
194.04	17.17184104
194.254	17.21648975
194.469	17.23232487
194.683	17.31346172
194.898	17.3132874
195.112	17.28862108
195.327	17.06306827
195.541	17.07220278
195.756	17.09855544
195.97	17.10922379
196.184	17.20592243
196.399	17.11840144
196.613	17.03309496
196.828	16.97665571
197.042	16.94125034
197.257	16.90209658
197.471	16.85626771
197.685	16.98867964
197.9	16.94416403
198.114	16.97791058
198.328	17.08748218
198.543	17.08226258
198.757	16.90737288
198.971	16.91507107
199.186	17.02181668
199.4	17.198816
199.614	17.22663444
199.829	17.33656727
200.043	17.46792117
200.257	17.4248234
200.471	17.44551953
200.686	17.57536549
200.9	17.61547283
201.114	17.80575436
201.328	17.786023
201.543	17.7841096
201.757	17.8328492
201.971	17.87004271
202.185	17.91358331
202.399	18.03878859
202.614	17.93825738
202.828	18.04343032
203.042	18.03782121
203.256	18.17529162
203.47	18.11677539
203.684	18.07634165
203.899	17.91193038
204.113	17.90212979
204.327	17.98019036
204.541	17.99991193
204.755	17.93059483
204.969	17.99034068
205.183	17.96801649
205.397	18.02533067
205.611	17.96533117
205.825	18.04835215
206.039	18.08297999
206.253	18.0918301
206.467	18.12406427
206.681	18.10785588
206.895	18.106753
207.109	18.19488919
207.323	18.0837344
207.537	18.19247592
207.751	18.17940446
207.965	18.24055865
208.179	18.30003996
208.393	18.38700867
208.607	18.44406078
208.821	18.50106731
209.035	18.47633031
209.249	18.61754655
209.463	18.66018649
209.677	18.72635766
209.891	18.73633552
210.104	18.73112303
210.318	18.75991906
210.532	18.84825063
210.746	18.90339796
210.96	18.92914458
211.174	18.96299554
211.387	18.88784523
211.601	18.85749068
211.815	18.94453177
212.029	18.98476111
212.243	19.02384744
212.456	19.10647097
212.67	18.99431615
212.884	18.95777968
213.098	18.9880389
213.311	19.04857568
213.525	19.06703132
213.739	18.99451704
213.953	19.08651741
214.166	19.06533796
214.38	19.15695256
214.594	19.15587714
214.807	19.11857976
215.021	19.04499569
215.235	19.09847926
215.448	19.05773108
215.662	19.00551573
215.876	19.0588
216.089	19.12502285
216.303	19.19376369
216.516	19.23498172
216.73	19.30408932
216.944	19.176898
217.157	19.22301377
217.371	19.35760824
217.584	19.21340137
217.798	19.25422877
218.011	19.22655415
218.225	19.40514535
218.439	19.35786181
218.652	19.40262183
218.866	19.30670016
219.079	19.41726387
219.293	19.45617245
219.506	19.57368044
219.719	19.61424613
219.933	19.66534311
220.146	19.71846501
220.36	19.75870655
220.573	19.76089375
220.787	19.71785481
221	19.65349173
221.214	19.59501298
221.427	19.79683784
221.64	19.91511343
221.854	19.84602241
222.067	20.06923309
222.28	20.07527084
222.494	20.15863604
222.707	20.12871031
222.92	20.16716227
223.134	20.22641111
223.347	20.40886153
223.56	20.42640465
223.774	20.60834298
223.987	20.66996335
224.2	20.54932777
224.414	20.7002948
224.627	20.7447446
224.84	20.93843483
225.053	21.12896042
225.267	21.17728213
225.48	21.31926567
225.693	21.4460335
225.906	21.44473418
226.119	21.59083106
226.333	21.85075899
226.546	21.92272099
226.759	21.95726982
226.972	21.9977103
227.185	22.05830802
227.398	22.24889979
227.612	22.2715305
227.825	22.36209659
228.038	22.45883593
228.251	22.47470345
228.464	22.67694675
228.677	22.98606448
228.89	23.04017933
229.103	23.13684717
229.316	23.10698144
229.529	23.1419736
229.743	23.18770515
229.956	23.17076751
230.169	23.34217143
230.382	23.43648823
230.595	23.41343904
230.808	23.33767517
231.021	23.33170069
231.234	23.41254919
231.447	23.6170326
231.66	23.7547069
231.872	23.7360568
232.085	23.80561384
232.298	23.88771406
232.511	24.03861908
232.724	24.08841412
232.937	23.94296748
233.15	23.90879582
233.363	23.87574181
233.576	24.01174753
233.789	24.0125546
234.002	24.1034139
234.214	24.22997662
234.427	24.27049146
234.64	24.27324456
234.853	24.30726996
235.066	24.25195632
235.279	24.36359601
235.491	24.34811345
235.704	24.31151371
235.917	24.28396384
236.13	24.28481202
236.342	24.13993996
236.555	24.03318362
236.768	24.04464934
236.981	23.87163843
237.193	23.92315991
237.406	23.94342232
237.619	23.9071095
237.832	23.84841057
238.044	23.84420952
238.257	23.94514037
238.47	23.90071666
238.682	23.99847114
238.895	24.08771857
239.108	24.11358623
239.32	24.10322627
239.533	24.11517899
239.746	24.04176619
239.958	24.04225086
240.171	24.13734175
240.383	24.21937208
240.596	24.19238084
240.808	24.42889565
241.021	24.66063752
241.234	24.55248995
241.446	24.71809835
241.659	24.67389337
241.871	24.74080089
242.084	24.82112168
242.296	24.9424622
242.509	24.8763564
242.721	24.82020747
242.934	24.81014117
243.146	24.5969274
243.359	24.69146873
243.571	24.56313486
243.784	24.617647
243.996	24.70949222
244.208	24.79516172
244.421	24.92416229
244.633	24.96875531
244.846	24.89644582
245.058	25.12239969
245.27	25.14447796
245.483	25.09394287
245.695	25.08098541
245.907	25.06743214
246.12	25.0672085
246.332	25.09358469
246.544	25.06963396
246.757	25.10885458
246.969	25.19030596
247.181	25.19967575
247.394	25.24366373
247.606	25.40475925
247.818	25.41606598
248.03	25.53571609
248.243	25.57492585
248.455	25.66393882
248.667	25.68633453
248.879	25.66698151
249.092	25.66876025
249.304	25.68594211
249.516	25.57010431
249.728	25.61682143
249.94	25.59868028
250.153	25.74661154
250.365	25.76005039
250.577	25.83945261
250.789	25.84739863
251.001	25.97890639
251.213	25.94827917
251.425	25.97791393
251.637	26.10126618
251.85	26.12483527
252.062	26.04422654
252.274	26.04831179
252.486	26.17385576
252.698	26.23440541
252.91	26.30914521
253.122	26.35950551
253.334	26.47159179
253.546	26.46803295
253.758	26.43252414
253.97	26.52391388
254.182	26.44463422
254.394	26.33658561
254.606	26.29486985
254.818	26.35960302
255.03	26.3143655
255.242	26.41332362
255.454	26.36796649
255.666	26.5359018
255.877	26.46378804
256.089	26.38674474
256.301	26.41870171
256.513	26.59250024
256.725	26.61966658
256.937	26.58216149
257.149	26.70036055
257.361	26.61501399
257.572	26.55833015
257.784	26.58607797
257.996	26.65860073
258.208	26.79720821
258.42	26.84328095
258.631	26.88112815
258.843	27.12365115
259.055	27.30807615
259.267	27.39738313
259.479	27.41072158
259.69	27.35731998
259.902	27.60789667
260.114	27.50191061
260.325	27.63377852
260.537	27.70050587
260.749	27.81442894
260.961	27.90258349
261.172	27.9028639
261.384	27.93453691
261.596	27.89192665
261.807	27.90640331
262.019	28.05781484
262.23	27.98845926
262.442	28.07095117
262.654	28.05263809
262.865	27.96696616
263.077	27.97921282
263.288	28.03764034
263.5	27.95710443
263.712	27.93620097
263.923	27.96889347
264.135	28.16541578
264.346	28.02178132
264.558	28.00938769
264.769	28.02951267
264.981	28.15558995
265.192	28.03551771
265.404	28.10000902
265.615	28.15581147
265.827	27.97484926
266.038	27.95622429
266.25	28.02456344
266.461	27.87007271
266.673	27.94284079
266.884	27.84683813
267.095	27.84395468
267.307	27.87060997
267.518	27.90189453
267.73	27.84351824
267.941	27.91836413
268.152	27.82143721
268.364	27.89257625
268.575	27.80650965
268.786	27.73894074
268.998	27.82064407
269.209	27.73714352
269.42	27.66661038
269.632	27.69779172
269.843	27.52127638
270.054	27.49183512
270.265	27.57935811
270.477	27.52501579
270.688	27.4613611
270.899	27.53667341
271.11	27.56971541
271.322	27.57818775
271.533	27.48257848
271.744	27.3287273
271.955	27.23099559
272.166	27.18854074
272.378	27.00403678
272.589	27.05582736
272.8	27.04419834
273.011	26.98521133
273.222	26.97521549
273.433	26.83975287
273.644	26.83340596
273.856	26.72036462
274.067	26.63129888
274.278	26.52050705
274.489	26.44062789
274.7	26.56122234
274.911	26.53650252
275.122	26.6506558
275.333	26.54107078
275.544	26.31877352
275.755	26.19174563
275.966	26.17823562
276.177	26.21178585
276.388	26.1195692
276.599	25.99179135
276.81	25.88640137
277.021	25.71744565
277.232	25.55355741
277.443	25.44801372
277.654	25.4278682
277.865	25.37107077
278.076	25.0680043
278.287	24.97067868
278.497	24.89953373
278.708	24.81849086
278.919	24.62475276
279.13	24.39980732
279.341	24.07430714
279.552	23.88587597
279.763	23.67849907
279.973	23.55666411
280.184	23.38884692
280.395	23.22299994
280.606	23.05755144
280.817	22.86637722
281.027	22.60580786
281.238	22.47946811
281.449	22.27908922
281.66	22.0753035
281.87	21.86543179
282.081	21.54430649
282.292	21.39732687
282.503	21.35730623
282.713	21.2063642
282.924	20.89449714
283.135	20.68632973
283.345	20.51225186
283.556	20.29941187
283.767	20.18990513
283.977	19.89362286
284.188	19.7176006
284.399	19.58110527
284.609	19.37421632
284.82	19.11424812
285.03	18.9256057
285.241	18.78151713
285.451	18.75166702
285.662	18.60544809
285.873	18.54245845
286.083	18.36223574
286.294	18.17228261
286.504	18.16347174
286.715	17.99077092
286.925	17.96186995
287.136	17.85777269
287.346	17.89032776
287.557	17.78266382
287.767	17.71603365
287.978	17.69473772
288.188	17.69384155
288.399	17.6631696
288.609	17.64553241
288.819	17.57081645
289.03	17.61772117
289.24	17.71746429
289.451	17.68418669
289.661	17.75968877
289.871	17.74802249
290.082	17.72568134
290.292	17.65386058
290.502	17.71073905
290.713	17.73496359
290.923	17.61962874
291.133	17.7128991
291.344	17.59733977
291.554	17.55821292
291.764	17.50845731
291.974	17.58851508
292.185	17.5705605
292.395	17.46360172
292.605	17.48170713
292.815	17.41778982
293.026	17.36620686
293.236	17.32155992
293.446	17.31995186
293.656	17.2858902
293.866	17.25713499
294.077	17.1716826
294.287	17.00465798
294.497	17.045603
294.707	17.13925367
294.917	17.14315534
295.127	17.03557378
295.337	16.97573658
295.548	16.89550295
295.758	16.85961917
295.968	16.7447713
296.178	16.755668
296.388	16.64500255
296.598	16.51900788
296.808	16.46529304
297.018	16.33327979
297.228	16.29827932
297.438	16.27406219
297.648	16.13357794
297.858	16.01045778
298.068	15.81424742
298.278	15.71264538
298.488	15.72160815
298.698	15.72910302
298.908	15.52818391
299.118	15.33690372
299.328	15.18973026
299.538	15.12718303
299.748	15.0710128
299.957	14.95650961
300.167	14.81796912
300.377	14.71367184
300.587	14.52427433
300.797	14.44308382
301.007	14.41872141
301.217	14.33226405
301.426	14.28657616
301.636	14.17930306
301.846	14.07280168
302.056	14.06008379
302.266	13.96601905
302.475	13.9359614
302.685	13.85343679
302.895	13.68991228
303.105	13.64575291
303.314	13.60776784
303.524	13.53896928
303.734	13.5063292
303.944	13.43792054
304.153	13.34100329
304.363	13.24932038
304.573	13.21202014
304.782	13.15938017
304.992	13.17975265
305.202	13.10433595
305.411	13.04242847
305.621	12.97621984
305.831	12.90132836
306.04	12.84016341
306.25	12.82346756
306.459	12.72474283
306.669	12.68137185
306.878	12.64661995
307.088	12.59850227
307.298	12.52404034
307.507	12.43608436
307.717	12.38926633
307.926	12.31835982
308.136	12.27789298
308.345	12.24796508
308.555	12.21401745
308.764	12.18441053
308.974	12.15078468
309.183	12.11328859
309.392	12.03998209
309.602	11.99449683
309.811	11.95030699
310.021	11.89457187
310.23	11.85434573
310.44	11.81740315
310.649	11.77313444
310.858	11.76395772
311.068	11.72199095
311.277	11.67125632
311.486	11.64590604
311.696	11.63639823
311.905	11.60783788
312.114	11.60559602
312.324	11.60640815
312.533	11.5674983
312.742	11.50435086
312.952	11.46154114
313.161	11.41856124
313.37	11.39788929
313.579	11.39169172
313.789	11.365336
313.998	11.35753026
314.207	11.34657179
314.416	11.354735
314.625	11.33377328
314.835	11.32538556
315.044	11.28838247
315.253	11.2615937
315.462	11.23371235
315.671	11.21751778
315.88	11.19219334
316.09	11.17535359
316.299	11.15861626
316.508	11.10948993
316.717	11.09550852
316.926	11.06519177
317.135	11.06393898
317.344	11.05438368
317.553	11.05811849
317.762	11.02397578
317.971	11.00017304
318.18	10.99124362
318.389	10.97663056
318.598	10.95031755
318.807	10.94818217
319.016	10.92959574
319.225	10.90907856
319.434	10.90194163
319.643	10.90157249
319.852	10.88158399
320.061	10.86053011
320.27	10.86012216
320.479	10.85237648
320.688	10.83021475
320.897	10.82351963
321.105	10.8079427
321.314	10.78835118
321.523	10.79612025
321.732	10.80236031
321.941	10.77918122
322.15	10.78735639
322.359	10.7830871
322.567	10.77030054
322.776	10.75138572
322.985	10.76788516
323.194	10.73877267
323.403	10.72829166
323.611	10.71533094
323.82	10.70125102
324.029	10.6922857
324.237	10.69686993
324.446	10.70056577
324.655	10.69169156
324.864	10.68916867
325.072	10.6809131
325.281	10.68182377
325.49	10.6617404
325.698	10.65842397
325.907	10.63891976
326.116	10.6201827
326.324	10.6110997
326.533	10.60111629
326.741	10.5931119
326.95	10.59007021
327.159	10.58600201
327.367	10.56795359
327.576	10.56982203
327.784	10.56585907
327.993	10.57446199
328.201	10.57301727
328.41	10.57271462
328.618	10.57419491
328.827	10.57777392
329.035	10.56432223
329.244	10.56463224
329.452	10.57263708
329.661	10.54956846
329.869	10.54277785
330.078	10.5546312
330.286	10.56030908
330.495	10.57008489
330.703	10.57016592
330.911	10.56688326
331.12	10.56165493
331.328	10.56738263
331.537	10.58034906
331.745	10.58001975
331.953	10.5741317
332.162	10.57371611
332.37	10.57875039
332.578	10.5898495
332.787	10.58325948
332.995	10.59065937
333.203	10.58590616
333.411	10.59387647
333.62	10.57735785
333.828	10.56265249
334.036	10.58094205
334.244	10.60662107
334.453	10.6105215
334.661	10.61097303
334.869	10.60465826
335.077	10.61901015
335.285	10.61983622
335.494	10.63359865
335.702	10.61178306
335.91	10.60525132
336.118	10.59237976
336.326	10.59095427
336.534	10.60629233
336.742	10.58627812
336.951	10.59648611
337.159	10.57773492
337.367	10.56185338
337.575	10.56953524
337.783	10.57273417
337.991	10.57805417
338.199	10.60030011
338.407	10.59831048
338.615	10.576546
338.823	10.56921431
339.031	10.56836203
339.239	10.56534828
339.447	10.55522972
339.655	10.56819454
339.863	10.56378803
340.071	10.58308176
340.279	10.58982616
340.487	10.59141103
340.695	10.59377866
340.903	10.58170265
341.11	10.58598718
341.318	10.57924193
341.526	10.58654067
341.734	10.59323019
341.942	10.58576711
342.15	10.57318149
342.358	10.58319162
342.565	10.57160468
342.773	10.5790947
342.981	10.59921607
343.189	10.60978398
343.397	10.61949489
343.604	10.63520252
343.812	10.65348131
344.02	10.63147003
344.228	10.63258236
344.435	10.61669522
344.643	10.60646964
344.851	10.6117806
345.058	10.62305208
345.266	10.62938693
345.474	10.63801282
345.681	10.62611983
345.889	10.62845009
346.097	10.63686666
346.304	10.6266094
346.512	10.63201168
346.72	10.61934859
346.927	10.62410534
347.135	10.62566423
347.342	10.61467733
347.55	10.61151623
347.758	10.59789039
347.965	10.59765208
348.173	10.59014567
348.38	10.60219392
348.588	10.61786425
348.795	10.6280509
349.003	10.62762453
349.21	10.63171257
349.418	10.62468927
349.625	10.62832165
349.833	10.62905082
350.04	10.62914609
350.247	10.64812987
350.455	10.63772023
350.662	10.65293751
350.87	10.66216328
351.077	10.67575922
351.284	10.66799091
351.492	10.66182321
351.699	10.65925652
351.906	10.650506
352.114	10.65316226
352.321	10.64270775
352.528	10.62764087
352.736	10.62073163
352.943	10.59929155
353.15	10.60458575
353.358	10.60281524
353.565	10.60212286
353.772	10.60843699
353.979	10.61268095
354.187	10.6146217
354.394	10.62439664
354.601	10.61844144
354.808	10.61923357
355.015	10.59943318
355.223	10.59658265
355.43	10.59945633
355.637	10.60253055
355.844	10.6022989
356.051	10.60599395
356.258	10.61866637
356.465	10.6215352
356.673	10.63942617
356.88	10.64467555
357.087	10.66074111
357.294	10.66868553
357.501	10.67044142
357.708	10.68096615
357.915	10.68060077
358.122	10.67475528
358.329	10.66171179
358.536	10.6636898
358.743	10.66707874
358.95	10.66693237
359.157	10.67065693
359.364	10.68843115
359.571	10.69469637
359.778	10.68038234
359.985	10.69067388
360.192	10.68577185
360.399	10.68988839
360.606	10.68766261
360.812	10.66755674
361.019	10.66941343
361.226	10.6809588
361.433	10.67850097
361.64	10.66395609
361.847	10.66731815
362.054	10.67064916
362.26	10.6699585
362.467	10.66901391
362.674	10.67506529
362.881	10.66657928
363.088	10.6658629
363.294	10.66111656
363.501	10.66344294
363.708	10.64377684
363.915	10.63613496
364.121	10.64336789
364.328	10.63225566
364.535	10.63096163
364.741	10.62418126
364.948	10.61996714
365.155	10.62902452
365.361	10.6155254
365.568	10.60901846
365.775	10.61496463
365.981	10.61909927
366.188	10.59885982
366.395	10.5991522
366.601	10.60853288
366.808	10.61848863
367.014	10.60642402
367.221	10.61459266
367.427	10.59865826
367.634	10.61761709
367.84	10.61184534
368.047	10.62685133
368.254	10.6305921
368.46	10.62837186
368.667	10.63822407
368.873	10.64982578
369.079	10.65288782
369.286	10.65005515
369.492	10.65868334
369.699	10.65898036
369.905	10.66231611
370.112	10.6589895
370.318	10.66656022
370.524	10.68465371
370.731	10.68758601
370.937	10.68878873
371.144	10.67700109
371.35	10.69075775
371.556	10.68847893
371.763	10.70100039
371.969	10.68875418
372.175	10.69983024
372.381	10.69517083
372.588	10.6885786
372.794	10.69166435
373	10.68237404
373.206	10.67722396
373.413	10.68143682
373.619	10.68603024
373.825	10.68744623
374.031	10.67813023
374.238	10.67514599
374.444	10.6656356
374.65	10.67497368
374.856	10.68129196
375.062	10.67720534
375.268	10.66420466
375.475	10.67097703
375.681	10.67434349
375.887	10.67837902
376.093	10.6787916
376.299	10.66277301
376.505	10.66715607
376.711	10.6827544
376.917	10.69708889
377.123	10.69930373
377.329	10.71386928
377.535	10.72024596
377.741	10.72778225
377.947	10.73788827
378.153	10.7404587
378.359	10.76051022
378.565	10.75798138
378.771	10.76694603
378.977	10.7619056
379.183	10.75717961
379.389	10.75986128
379.595	10.76424053
379.801	10.76734575
380.007	10.76317893
380.213	10.77103524
380.418	10.77081954
380.624	10.79345564
380.83	10.78205021
381.036	10.76941035
381.242	10.74925597
381.448	10.75558945
381.653	10.74240804
381.859	10.74106348
382.065	10.7297903
382.271	10.71970955
382.476	10.72577654
382.682	10.71959167
382.888	10.74039707
383.094	10.74088996
383.299	10.74245271
383.505	10.75326265
383.711	10.75327978
383.916	10.73745785
384.122	10.74111116
384.328	10.75551906
384.533	10.75833301
384.739	10.76299447
384.945	10.75523587
385.15	10.76750044
385.356	10.77908932
385.562	10.79618653
385.767	10.79091145
385.973	10.79982038
386.178	10.80155194
386.384	10.80576688
386.589	10.81418633
386.795	10.81056823
387	10.80894774
387.206	10.80959292
387.411	10.81933733
387.617	10.83005073
387.822	10.81752537
388.028	10.82845706
388.233	10.85764664
388.439	10.8481588
388.644	10.84643389
388.85	10.83204375
389.055	10.83392839
389.26	10.83472496
389.466	10.82807623
389.671	10.8170346
389.877	10.81274896
390.082	10.81480822
390.287	10.8140193
390.493	10.81198992
390.698	10.81450542
390.903	10.81579679
391.109	10.80731879
391.314	10.80547915
391.519	10.80149116
391.724	10.79353881
391.93	10.78897374
392.135	10.78806988
392.34	10.78147285
392.545	10.77637673
392.751	10.77945526
392.956	10.7651332
393.161	10.76532479
393.366	10.76519145
393.571	10.77536957
393.776	10.7796683
393.982	10.79035578
394.187	10.79167241
394.392	10.78767209
394.597	10.77766999
394.802	10.78369858
395.007	10.78913545
395.212	10.78017734
395.417	10.79083572
395.622	10.79550216
395.827	10.78635877
396.032	10.78293769
396.237	10.77414937
396.442	10.77405474
396.647	10.76809151
396.852	10.76488383
397.057	10.76218845
397.262	10.76460087
397.467	10.76357827
397.672	10.76640536
397.877	10.75475858
398.082	10.75064073
398.287	10.73986314
398.492	10.73476768
398.697	10.73805706
398.902	10.75143507
399.107	10.74690374
399.311	10.74311201
399.516	10.75123569
399.721	10.75150098
399.926	10.75854843
400.131	10.76241136
400.336	10.77029202
400.54	10.77933374
400.745	10.77244068
400.95	10.7702897
401.155	10.77287307
401.359	10.77199134
401.564	10.77580447
401.769	10.78307145
401.974	10.78471638
402.178	10.79452152
402.383	10.80363004
402.588	10.80916356
402.792	10.82395291
402.997	10.82712991
403.202	10.82486482
403.406	10.82741775
403.611	10.8246588
403.815	10.82711261
404.02	10.83503922
404.225	10.82542211
404.429	10.83001436
404.634	10.82747212
404.838	10.82055678
405.043	10.8391198
405.247	10.84063575
405.452	10.83697463
405.656	10.84436062
405.861	10.85100383
406.065	10.85636055
406.27	10.85496143
406.474	10.85313279
406.679	10.84031944
406.883	10.83927182
407.088	10.83851029
407.292	10.83400217
407.497	10.82616546
407.701	10.82993624
407.905	10.8315581
408.11	10.82621936
408.314	10.8191105
408.518	10.81900317
408.723	10.81722445
408.927	10.81682408
409.131	10.81859879
409.336	10.80641251
409.54	10.81477444
409.744	10.81619298
409.949	10.81310312
410.153	10.80711297
410.357	10.80070793
410.561	10.79748247
410.766	10.79322325
410.97	10.79856479
411.174	10.80476453
411.378	10.79717415
411.582	10.80341188
411.787	10.80956076
411.991	10.80191631
412.195	10.79867944
412.399	10.80266867
412.603	10.80040787
412.807	10.80697135
413.011	10.80787839
413.215	10.81190869
413.419	10.8111369
413.624	10.81355577
413.828	10.80819555
414.032	10.81091162
414.236	10.81279318
414.44	10.81671786
414.644	10.81664876
414.848	10.82206874
415.052	10.82687163
415.256	10.83225335
415.46	10.83646312
415.664	10.83715824
415.868	10.83090351
416.072	10.83943329
416.275	10.83991326
416.479	10.84944792
416.683	10.84223383
416.887	10.84164093
417.091	10.84497778
417.295	10.84777945
417.499	10.85387804
417.703	10.86034253
417.906	10.85954553
418.11	10.86456467
418.314	10.86938403
418.518	10.87692599
418.722	10.87922227
418.925	10.87608465
419.129	10.86838316
419.333	10.87835601
419.537	10.87034682
419.74	10.86874778
419.944	10.86485499
420.148	10.86687374
420.352	10.87130119
420.555	10.87907048
420.759	10.87902822
420.963	10.89059069
421.166	10.89303738
421.37	10.88907404
421.573	10.88535616
421.777	10.87921649
421.981	10.88017646
422.184	10.88992495
422.388	10.89309871
422.591	10.89181664
422.795	10.88618801
422.999	10.89270827
423.202	10.91703057
423.406	10.92783781
423.609	10.92822473
423.813	10.94245747
424.016	10.94287062
424.22	10.95006804
424.423	10.95452979
424.627	10.9581702
424.83	10.9508303
425.033	10.94907161
425.237	10.947182
425.44	10.94168463
425.644	10.95227887
425.847	10.95777773
426.05	10.959159
426.254	10.95323722
426.457	10.95417559
426.66	10.95616098
426.864	10.96391682
427.067	10.96922907
427.27	10.96097978
427.474	10.94936
427.677	10.94608582
427.88	10.9518721
428.084	10.94142381
428.287	10.93582812
428.49	10.94143879
428.693	10.94569393
428.896	10.93756051
429.1	10.94695993
429.303	10.95214548
429.506	10.96088784
429.709	10.97584682
429.912	10.97865641
430.116	10.97941932
430.319	10.97864253
430.522	10.98981425
430.725	10.98621852
430.928	10.98575624
431.131	10.9813152
431.334	10.98166159
431.537	10.98619583
431.74	10.98333554
431.943	10.98907261
432.146	10.98140222
432.349	10.99851166
432.552	11.00529276
432.755	11.00706855
432.958	11.00277485
433.161	11.00917405
433.364	11.01625574
433.567	11.01037459
433.77	11.00749381
433.973	11.0053165
434.176	10.99887734
434.379	11.001675
434.582	10.9973498
434.785	10.99963449
434.988	11.00060046
435.19	11.00373508
435.393	11.0038456
435.596	11.00936408
435.799	11.01426522
436.002	11.01704601
436.205	11.02403238
436.407	11.02932491
436.61	11.02481979
436.813	11.02398863
437.016	11.0244822
437.218	11.03182988
437.421	11.02939245
437.624	11.01736464
437.827	11.03396511
438.029	11.03618835
438.232	11.04323449
438.435	11.0418435
438.637	11.03189708
438.84	11.03767892
439.043	11.03600609
439.245	11.03465901
439.448	11.04172939
439.65	11.04335244
439.853	11.04402777
440.056	11.03486783
440.258	11.03629713
440.461	11.02618231
440.663	11.03143286
440.866	11.03446875
441.068	11.04034662
441.271	11.0392282
441.473	11.03400362
441.676	11.03668992
441.878	11.05147036
442.081	11.04546315
442.283	11.04610979
442.486	11.04560832
442.688	11.05341052
442.89	11.06378316
443.093	11.07042006
443.295	11.06945913
443.498	11.07530523
443.7	11.06802807
443.902	11.06872469
444.105	11.07195034
444.307	11.08285393
444.509	11.08077752
444.712	11.09373636
444.914	11.0918598
445.116	11.08612747
445.319	11.08558736
445.521	11.09726226
445.723	11.10669546
445.925	11.10995283
446.128	11.103389
446.33	11.10421258
446.532	11.10270877
446.734	11.09292573
446.936	11.08920529
447.139	11.08761523
447.341	11.08617558
447.543	11.0971594
447.745	11.10414912
447.947	11.11226322
448.149	11.11986343
448.351	11.11681726
448.553	11.1236575
448.755	11.12764538
448.958	11.12416351
449.16	11.11944492
449.362	11.12701263
449.564	11.12999149
449.766	11.12306998
449.968	11.12634236
450.17	11.12782383
450.372	11.13565228
450.574	11.13290902
450.776	11.13594062
450.978	11.14548133
451.179	11.15122707
451.381	11.16025629
451.583	11.16414281
451.785	11.15949637
451.987	11.16208227
452.189	11.15545587
452.391	11.15400749
452.593	11.15250188
452.795	11.13969549
452.996	11.14350874
453.198	11.14913082
453.4	11.14756009
453.602	11.14651557
453.804	11.14635218
454.005	11.14559715
454.207	11.14027652
454.409	11.14034124
454.611	11.13934729
454.812	11.14849478
455.014	11.15240171
455.216	11.15658932
455.417	11.15824589
455.619	11.15568397
455.821	11.15629497
456.022	11.15659951
456.224	11.15401526
456.426	11.15660444
456.627	11.16708043
456.829	11.17534724
457.031	11.18936011
457.232	11.19408724
457.434	11.19156768
457.635	11.19396874
457.837	11.18968554
458.038	11.19536874
458.24	11.19962393
458.441	11.20300835
458.643	11.20538343
458.844	11.21306593
459.046	11.21577832
459.247	11.21710514
459.449	11.22274329
459.65	11.2164941
459.852	11.21953282
460.053	11.22182408
460.254	11.21790263
460.456	11.21675474
460.657	11.22083167
460.859	11.21603866
461.06	11.21014174
461.261	11.20933593
461.463	11.20371348
461.664	11.21384772
461.865	11.21883279
462.066	11.22461557
462.268	11.2255937
462.469	11.22751428
462.67	11.23208949
462.872	11.2261436
463.073	11.22712564
463.274	11.22452735
463.475	11.22555899
463.676	11.22277791
463.878	11.23224425
464.079	11.23123352
464.28	11.23215536
464.481	11.23037914
464.682	11.24028071
464.883	11.24373385
465.085	11.24426108
465.286	11.24995718
465.487	11.24797882
465.688	11.25529529
465.889	11.25347843
466.09	11.25333336
466.291	11.25351865
466.492	11.25323639
466.693	11.24266198
466.894	11.24284825
467.095	11.25212099
467.296	11.2509893
467.497	11.25092371
467.698	11.25351717
467.899	11.25227354
468.1	11.25167832
468.301	11.25513715
468.502	11.25532554
468.703	11.26928944
468.903	11.26859016
469.104	11.26958932
469.305	11.27389681
469.506	11.27218901
469.707	11.27723446
469.908	11.27297434
470.109	11.27090263
470.309	11.27320096
470.51	11.27892381
470.711	11.28084899
470.912	11.30039154
471.112	11.29888906
471.313	11.29976482
471.514	11.30063285
471.715	11.30022737
471.915	11.30437847
472.116	11.31001328
472.317	11.30927266
472.517	11.30768644
472.718	11.31663187
472.919	11.32016826
473.119	11.32297045
473.32	11.33048902
473.521	11.33505811
473.721	11.34258342
473.922	11.34451873
474.122	11.34995863
474.323	11.35419534
474.523	11.35984541
474.724	11.36206375
474.925	11.36417583
475.125	11.36788095
475.326	11.38065085
475.526	11.38325173
475.727	11.39088781
475.927	11.39839083
476.127	11.40756018
476.328	11.41462865
476.528	11.42503974
476.729	11.44381822
476.929	11.44776355
477.13	11.4499102
477.33	11.44765536
477.53	11.45709251
477.731	11.45976057
477.931	11.46770821
478.131	11.4758997
478.332	11.48339173
478.532	11.48549049
478.732	11.49068325
478.933	11.50416285
479.133	11.51496018
479.333	11.51900643
479.533	11.5224584
479.734	11.52944779
479.934	11.52877661
480.134	11.53578477
480.334	11.53727806
480.534	11.5406235
480.735	11.54855742
480.935	11.54435571
481.135	11.54835715
481.335	11.55381762
481.535	11.5649308
481.735	11.56454018
481.935	11.56856951
482.136	11.5735488
482.336	11.57641007
482.536	11.58570255
482.736	11.59327238
482.936	11.59608804
483.136	11.59711796
483.336	11.60232756
483.536	11.60707165
483.736	11.60965213
483.936	11.61244043
484.136	11.61728641
484.336	11.62454994
484.536	11.62965768
484.736	11.63698588
484.936	11.63690573
485.135	11.6435785
485.335	11.64916389
485.535	11.6520677
485.735	11.65663424
485.935	11.65751433
486.135	11.66505727
486.335	11.66827857
486.534	11.67213077
486.734	11.67276889
486.934	11.67997512
487.134	11.69036985
487.334	11.69349422
487.533	11.69559568
487.733	11.69822382
487.933	11.70049974
488.133	11.71025597
488.332	11.71859528
488.532	11.72054065
488.732	11.72260238
488.931	11.72393303
489.131	11.72852255
489.331	11.73071572
489.53	11.73526709
489.73	11.74212621
489.93	11.7466981
490.129	11.75212579
490.329	11.75871158
490.528	11.76587849
490.728	11.77167588
490.928	11.77962265
491.127	11.7864005
491.327	11.78938257
491.526	11.79500328
491.726	11.79551533
491.925	11.79476635
492.125	11.80042014
492.324	11.80685467
492.524	11.80945262
492.723	11.81644957
492.922	11.82004654
493.122	11.82285679
493.321	11.8261509
493.521	11.82614202
493.72	11.82748311
493.919	11.83378005
494.119	11.83905121
494.318	11.83993079
494.517	11.83907706
494.717	11.83830207
494.916	11.84335567
495.115	11.84558107
495.315	11.8439214
495.514	11.84805987
495.713	11.84798952
495.912	11.85164226
496.112	11.85519286
496.311	11.8627992
496.51	11.85704974
496.709	11.86294472
496.908	11.86209575
497.108	11.86807195
497.307	11.8741557
497.506	11.87947343
497.705	11.88650017
497.904	11.89152864
498.103	11.89096511
498.302	11.8907999
498.501	11.89844123
498.701	11.9033017
498.9	11.91033542
499.099	11.90820542
499.298	11.90981337
499.497	11.91105078
499.696	11.91341391
499.895	11.91781603
500.094	11.92306314
500.293	11.9329268
500.492	11.93515575
500.691	11.94361028
500.89	11.94295967
501.088	11.94857444
501.287	11.94882992
501.486	11.9545843
501.685	11.95893913
501.884	11.96966643
502.083	11.97313867
502.282	11.97418802
502.481	11.97914491
502.679	11.99194649
502.878	11.99612229
503.077	11.99865009
503.276	12.00476821
503.475	12.01140112
503.673	12.02103022
503.872	12.0310519
504.071	12.03527209
504.27	12.04512121
504.468	12.05028289
504.667	12.05843407
504.866	12.06681819
505.064	12.07677346
505.263	12.08577569
505.462	12.09932801
505.66	12.1061485
505.859	12.11809779
506.058	12.12424317
506.256	12.13212879
506.455	12.14989547
506.653	12.16366583
506.852	12.16696562
507.05	12.17803801
507.249	12.18585153
507.448	12.19701246
507.646	12.20621881
507.845	12.2184708
508.043	12.2280805
508.242	12.24241202
508.44	12.2484986
508.638	12.25595228
508.837	12.26336977
509.035	12.27405836
509.234	12.28395951
509.432	12.2978297
509.631	12.30176126
509.829	12.30846278
510.027	12.31569073
510.226	12.32447877
510.424	12.33734361
510.622	12.34650741
510.821	12.35945571
511.019	12.36631894
511.217	12.38120239
511.415	12.39478919
511.614	12.41053108
511.812	12.42105548
512.01	12.43136454
512.208	12.44643978
512.407	12.45944136
512.605	12.47723029
512.803	12.49280204
513.001	12.50832497
513.199	12.51921258
513.398	12.53948884
513.596	12.54994541
513.794	12.57089407
513.992	12.58586027
514.19	12.60199802
514.388	12.62266675
514.586	12.63381872
514.784	12.65152771
514.982	12.66698066
515.18	12.68661725
515.378	12.70253756
515.576	12.72388512
515.774	12.73943331
515.972	12.7536265
516.17	12.76984942
516.368	12.77791502
516.566	12.7961135
516.764	12.81428461
516.962	12.83610765
517.16	12.84936048
517.358	12.87318491
517.556	12.89015091
517.754	12.91457176
517.952	12.93203231
518.149	12.95616498
518.347	12.97430792
518.545	12.99898243
518.743	13.02117158
518.941	13.04160784
519.138	13.0603973
519.336	13.07811938
519.534	13.09948731
519.732	13.11876969
519.929	13.14592039
520.127	13.17506359
520.325	13.19273783
520.523	13.21934147
520.72	13.23827499
520.918	13.25851347
521.116	13.28075309
521.313	13.30833418
521.511	13.33468029
521.709	13.35667295
521.906	13.37668522
522.104	13.40535172
522.301	13.42992255
522.499	13.46363775
522.696	13.48179601
522.894	13.5115452
523.092	13.53934929
523.289	13.5697326
523.487	13.60827474
523.684	13.63247246
523.882	13.66142585
524.079	13.68888316
524.276	13.71288294
524.474	13.74974042
524.671	13.77884185
524.869	13.81145509
525.066	13.84498939
525.264	13.87883109
525.461	13.91424265
525.658	13.94189937
525.856	13.97394876
526.053	14.00783557
526.25	14.03929196
526.448	14.07741351
526.645	14.10700569
526.842	14.14198934
527.039	14.17615672
527.237	14.21138352
527.434	14.24165846
527.631	14.2805622
527.828	14.31947358
528.026	14.35370747
528.223	14.38524771
528.42	14.42765518
528.617	14.46976656
528.814	14.51306199
529.012	14.55840681
529.209	14.59632282
529.406	14.63506027
529.603	14.67028705
529.8	14.71589652
529.997	14.75775861
530.194	14.8021051
530.391	14.84469011
530.588	14.88526033
530.785	14.92273702
530.982	14.9651517
531.179	15.01339785
531.376	15.05829322
531.573	15.11010847
531.77	15.14822934
531.967	15.18817968
532.164	15.24360961
532.361	15.29855208
532.558	15.34265198
532.755	15.38573321
532.952	15.43341102
533.149	15.47052492
533.346	15.51985492
533.543	15.57130766
533.739	15.62518847
533.936	15.66900991
534.133	15.72289799
534.33	15.76871841
534.527	15.81506117
534.723	15.86093881
534.92	15.90963154
535.117	15.96356018
535.314	16.0064303
535.51	16.04859857
535.707	16.1019624
535.904	16.14719455
536.1	16.20836951
536.297	16.25646707
536.494	16.29965009
536.69	16.35670791
536.887	16.40682195
537.084	16.45556306
537.28	16.51393359
537.477	16.56989477
537.674	16.61497749
537.87	16.67084161
538.067	16.72827286
538.263	16.77057703
538.46	16.83409704
538.656	16.89189005
538.853	16.94974087
539.049	17.00974155
539.246	17.05929502
539.442	17.12377152
539.639	17.18361524
539.835	17.23514983
540.032	17.29745846
540.228	17.35706088
540.424	17.40550003
540.621	17.45878322
540.817	17.51081933
541.014	17.57186596
541.21	17.62682378
541.406	17.68803653
541.603	17.74625025
541.799	17.81081647
541.995	17.86760933
542.191	17.92789553
542.388	18.0022076
542.584	18.05504
542.78	18.11862561
542.976	18.18167351
543.173	18.24838666
543.369	18.31329182
543.565	18.37123598
543.761	18.43398196
543.957	18.4920467
544.154	18.55163382
544.35	18.61138497
544.546	18.67797895
544.742	18.74957361
544.938	18.81209232
545.134	18.87775584
545.33	18.94152022
545.526	19.00102275
545.722	19.0516459
545.919	19.11389883
546.115	19.18138398
546.311	19.23828215
546.507	19.30010458
546.703	19.36415251
546.899	19.41704686
547.095	19.47782996
547.29	19.53518187
547.486	19.59576631
547.682	19.65708135
547.878	19.71642675
548.074	19.78298399
548.27	19.84688869
548.466	19.91242163
548.662	19.97468645
548.858	20.03756666
549.053	20.10547267
549.249	20.16778857
549.445	20.23174737
549.641	20.29453206
549.837	20.36825584
550.032	20.43255495
550.228	20.48902145
550.424	20.55900633
550.62	20.61832284
550.815	20.68263015
551.011	20.75298647
551.207	20.81807784
551.402	20.8906163
551.598	20.95431181
551.794	21.02060828
551.989	21.08840573
552.185	21.15534547
552.381	21.22070935
552.576	21.27551967
552.772	21.34415863
552.967	21.40756445
553.163	21.47642749
553.359	21.5385736
553.554	21.60358321
553.75	21.67547974
553.945	21.73937075
554.141	21.79822602
554.336	21.859042
554.532	21.92178532
554.727	21.98453393
554.922	22.04798683
555.118	22.11774544
555.313	22.17386785
555.509	22.23945135
555.704	22.31399583
555.899	22.38591666
556.095	22.45034752
556.29	22.50732149
556.486	22.58216928
556.681	22.64618412
556.876	22.7082395
557.071	22.77563752
557.267	22.83682244
557.462	22.89644927
557.657	22.9650646
557.853	23.02264272
558.048	23.09312773
558.243	23.16298652
558.438	23.23555011
558.633	23.30073988
558.829	23.36437621
559.024	23.42068701
559.219	23.48098315
559.414	23.55025619
559.609	23.614832
559.804	23.67292087
559.999	23.72713339
560.194	23.7914241
560.39	23.86715946
560.585	23.92063039
560.78	23.9827835
560.975	24.03992978
561.17	24.09227476
561.365	24.15034354
561.56	24.21729755
561.755	24.2763976
561.95	24.34028208
562.145	24.40141502
562.34	24.45604342
562.535	24.51261923
562.729	24.57830827
562.924	24.6428966
563.119	24.70822193
563.314	24.76407822
563.509	24.83322629
563.704	24.88476163
563.899	24.94506533
564.093	24.99587036
564.288	25.05113976
564.483	25.10236383
564.678	25.15835034
564.873	25.21593943
565.067	25.28540326
565.262	25.34772279
565.457	25.40889271
565.652	25.47612633
565.846	25.54065035
566.041	25.59783644
566.236	25.65396226
566.43	25.72560468
566.625	25.78716645
566.82	25.84615293
567.014	25.89572437
567.209	25.96865224
567.404	26.03159223
567.598	26.08845115
567.793	26.15213757
567.987	26.21190824
568.182	26.27817944
568.376	26.35104645
568.571	26.42106637
568.765	26.47916649
568.96	26.558619
569.154	26.62394816
569.349	26.68689436
569.543	26.75366988
569.738	26.8095804
569.932	26.86679353
570.127	26.93448803
570.321	26.99273627
570.515	27.06041302
570.71	27.12635321
570.904	27.18341909
571.098	27.25769236
571.293	27.31244799
571.487	27.37610131
571.681	27.43367219
571.876	27.49814096
572.07	27.57138722
572.264	27.6437878
572.458	27.70848154
572.653	27.76657512
572.847	27.83412382
573.041	27.88378787
573.235	27.94218215
573.43	28.00602853
573.624	28.07454913
573.818	28.13849765
574.012	28.20808149
574.206	28.27551712
574.4	28.35424581
574.594	28.41472837
574.788	28.48759862
574.983	28.55788966
575.177	28.62713828
575.371	28.70457122
575.565	28.78081989
575.759	28.85448079
575.953	28.92554737
576.147	28.98209026
576.341	29.05042712
576.535	29.11950007
576.729	29.18648054
576.923	29.25879674
577.117	29.33432135
577.31	29.40893418
577.504	29.48533772
577.698	29.54784277
577.892	29.62663108
578.086	29.70563398
578.28	29.7731332
578.474	29.83916634
578.668	29.90567729
578.861	29.97290016
579.055	30.04086092
579.249	30.10913745
579.443	30.17292259
579.636	30.23225098
579.83	30.29561783
580.024	30.36342791
580.218	30.43852782
580.411	30.50750645
580.605	30.57050442
580.799	30.63962947
580.992	30.70317345
581.186	30.76493987
581.38	30.82393901
581.573	30.87645833
581.767	30.95276154
581.961	31.00642557
582.154	31.06368887
582.348	31.11907477
582.541	31.16521258
582.735	31.22300575
582.928	31.28348937
583.122	31.34832615
583.315	31.41373125
583.509	31.47072379
583.702	31.52940429
583.896	31.60543846
584.089	31.66261018
584.283	31.73506888
584.476	31.80083693
584.67	31.85902415
584.863	31.92008112
585.056	32.00074591
585.25	32.06642419
585.443	32.13597297
585.636	32.22324533
585.83	32.27731574
586.023	32.34616962
586.216	32.4107403
586.41	32.49477105
586.603	32.57395544
586.796	32.65030089
586.989	32.72592592
587.183	32.79442456
587.376	32.86045695
587.569	32.93726738
587.762	33.0205746
587.955	33.09436523
588.149	33.17195053
588.342	33.22990325
588.535	33.3011563
588.728	33.385922
588.921	33.46766145
589.114	33.53688051
589.307	33.62025798
589.5	33.70540363
589.693	33.78151348
589.886	33.87010064
590.08	33.9420121
590.273	34.02165274
590.466	34.11606753
590.659	34.21066046
590.852	34.29939651
591.044	34.38927694
591.237	34.48096678
591.43	34.58173147
591.623	34.66763033
591.816	34.75310166
592.009	34.82289978
592.202	34.90633239
592.395	34.99337586
592.588	35.08755069
592.781	35.17519517
592.973	35.25069194
593.166	35.34989589
593.359	35.44463326
593.552	35.53010119
593.745	35.61018784
593.937	35.69037498
594.13	35.78079381
594.323	35.87819997
594.515	35.94898487
594.708	36.02340899
594.901	36.11094813
595.094	36.19061613
595.286	36.27433744
595.479	36.34645293
595.672	36.43810018
595.864	36.53656679
596.057	36.63155816
596.249	36.70468847
596.442	36.79972412
596.635	36.8792005
596.827	36.96635942
597.02	37.06980042
597.212	37.14390504
597.405	37.21424225
597.597	37.30667883
597.79	37.39007752
597.982	37.46977318
598.175	37.56518651
598.367	37.64972614
598.559	37.73711813
598.752	37.81941337
598.944	37.89043609
599.137	37.96904362
599.329	38.04717818
599.521	38.12602747
599.714	38.20131514
599.906	38.26427975
600.098	38.33686984
600.291	38.42082691
600.483	38.5000655
600.675	38.59444616
600.868	38.66656118
601.06	38.72571595
601.252	38.79519109
601.444	38.86887359
601.637	38.93099664
601.829	39.01202671
602.021	39.0976733
602.213	39.17491938
602.405	39.23542412
602.597	39.29503971
602.789	39.38262381
602.982	39.4657024
603.174	39.54577477
603.366	39.61655382
603.558	39.70044585
603.75	39.77185108
603.942	39.83960243
604.134	39.91948687
604.326	40.00687304
604.518	40.07115508
604.71	40.12631211
604.902	40.19463057
605.094	40.27435804
605.286	40.34483445
605.478	40.42247581
605.67	40.48890838
605.862	40.54246902
606.054	40.61054411
606.246	40.67917699
606.437	40.74615977
606.629	40.81211701
606.821	40.87771686
607.013	40.93210197
607.205	40.97831799
607.397	41.04048808
607.588	41.09627
607.78	41.158937
607.972	41.22370367
608.164	41.27435259
608.355	41.3367261
608.547	41.40939422
608.739	41.44801553
608.93	41.5138076
609.122	41.5708945
609.314	41.64455596
609.505	41.71472723
609.697	41.77261872
609.889	41.85973752
610.08	41.90514842
610.272	41.95678821
610.463	42.0372086
610.655	42.10139276
610.847	42.1554743
611.038	42.21374178
611.23	42.28985348
611.421	42.35750204
611.613	42.41974462
611.804	42.47448697
611.996	42.55315205
612.187	42.61640288
612.379	42.68576444
612.57	42.73838453
612.761	42.81712162
612.953	42.87250843
613.144	42.94311712
613.336	42.99032624
613.527	43.04425712
613.718	43.12315979
613.91	43.15994021
614.101	43.2340516
614.292	43.30136699
614.483	43.35612162
614.675	43.41582653
614.866	43.47213768
615.057	43.52752797
615.248	43.57430987
615.44	43.61311767
615.631	43.66002649
615.822	43.72242154
616.013	43.77775265
616.204	43.83989821
616.396	43.87120856
616.587	43.91382449
616.778	43.96487303
616.969	44.01958243
617.16	44.05923243
617.351	44.1126535
617.542	44.15530514
617.733	44.18277644
617.924	44.24563022
618.115	44.2868874
618.306	44.32152387
618.497	44.35388653
618.688	44.41178148
618.879	44.46049718
619.07	44.51947177
619.261	44.55614198
619.452	44.61513135
619.643	44.66946331
619.834	44.71086255
620.025	44.74829332
620.216	44.78123942
620.407	44.8371484
620.597	44.89422662
620.788	44.94711328
620.979	45.00093969
621.17	45.03980535
621.361	45.07048483
621.551	45.10376824
621.742	45.13649363
621.933	45.17418084
622.124	45.208453
622.314	45.25076165
622.505	45.30566158
622.696	45.33049926
622.886	45.36984042
623.077	45.39814001
623.268	45.45092298
623.458	45.49743916
623.649	45.51456513
623.84	45.56592131
624.03	45.58887228
624.221	45.62066261
624.411	45.62328689
624.602	45.66234692
624.792	45.67230116
624.983	45.7013973
625.173	45.74800681
625.364	45.79980092
625.554	45.85178487
625.745	45.90032562
625.935	45.94080675
626.126	45.99078903
626.316	46.03992109
626.507	46.08246188
626.697	46.12328379
626.887	46.17175704
627.078	46.22313122
627.268	46.25336038
627.458	46.29043221
627.649	46.32944627
627.839	46.36419622
628.029	46.42034278
628.22	46.46920995
628.41	46.53900713
628.6	46.55654621
628.79	46.61341934
628.981	46.6441933
629.171	46.68061231
629.361	46.72050213
629.551	46.74935903
629.741	46.81030135
629.932	46.85028231
630.122	46.87874785
630.312	46.92471463
630.502	46.93139343
630.692	46.98241802
630.882	47.00499799
631.072	47.04095436
631.262	47.09252132
631.452	47.13774475
631.642	47.19919409
631.832	47.22369828
632.022	47.26703215
632.212	47.2993049
632.402	47.3319978
632.592	47.40479777
632.782	47.45207687
632.972	47.49246721
633.162	47.53007746
633.352	47.55412753
633.542	47.62719982
633.732	47.65088702
633.922	47.67892808
634.111	47.72321926
634.301	47.75418658
634.491	47.80316608
634.681	47.84018561
634.871	47.88355327
635.06	47.92226319
635.25	47.94271646
635.44	47.98052231
635.63	48.01423151
635.819	48.08092924
636.009	48.09569446
636.199	48.13129042
636.388	48.16077488
636.578	48.17368282
636.768	48.19456011
636.957	48.23764201
637.147	48.26895109
637.337	48.31365754
637.526	48.33103249
637.716	48.36961969
637.905	48.42109735
638.095	48.45883732
638.284	48.47091448
638.474	48.50002254
638.663	48.50488394
638.853	48.52529031
639.042	48.55136682
639.232	48.59297143
639.421	48.59550329
639.611	48.62153791
639.8	48.61999386
639.99	48.65185135
640.179	48.69366543
640.368	48.71925564
640.558	48.74392539
640.747	48.76666316
640.936	48.7770856
641.126	48.8130797
641.315	48.83728711
641.504	48.82534154
641.694	48.82266087
641.883	48.83069038
642.072	48.84720832
642.261	48.8660701
642.451	48.89455171
642.64	48.93398514
642.829	48.94795608
643.018	48.96097618
643.207	48.97842035
643.397	49.00361359
643.586	49.01585717
643.775	49.05010897
643.964	49.06637052
644.153	49.06046418
644.342	49.1051916
644.531	49.14137095
644.72	49.17862466
644.909	49.19351592
645.098	49.19994202
645.287	49.2290799
645.476	49.2742115
645.665	49.29050558
645.854	49.30782314
646.043	49.33638508
646.232	49.37324837
646.421	49.38326145
646.61	49.39783073
646.799	49.4200206
646.988	49.44094779
647.177	49.46896354
647.365	49.49710557
647.554	49.50941667
647.743	49.52086205
647.932	49.5380714
648.121	49.58023621
648.309	49.57917039
648.498	49.59669052
648.687	49.5921537
648.876	49.64632494
649.064	49.67225892
649.253	49.66956575
649.442	49.69388659
649.63	49.74701419
649.819	49.76334597
650.008	49.78905592
650.196	49.80991764
650.385	49.83661118
650.574	49.89931212
650.762	49.96551698
650.951	50.01370498
651.139	50.04479853
651.328	50.08302989
651.516	50.13238502
651.705	50.17140484
651.893	50.22076283
652.082	50.28202721
652.27	50.32948471
652.459	50.36220801
652.647	50.41753568
652.836	50.42272627
653.024	50.44788952
653.213	50.49150361
653.401	50.520311
653.589	50.5315164
653.778	50.58907668
653.966	50.60482321
654.154	50.64262365
654.343	50.6751869
654.531	50.67862858
654.719	50.68058138
654.908	50.68604948
655.096	50.71409131
655.284	50.70925428
655.472	50.76360613
655.661	50.7806451
655.849	50.80953341
656.037	50.81526374
656.225	50.8558552
656.413	50.8900508
656.601	50.91841169
656.79	50.97219549
656.978	51.00121372
657.166	51.02162716
657.354	51.05864691
657.542	51.10629403
657.73	51.14381486
657.918	51.19071206
658.106	51.21549096
658.294	51.25871923
658.482	51.30176906
658.67	51.34361778
658.858	51.38361476
659.046	51.4097937
659.234	51.47340713
659.422	51.48605767
659.61	51.5211184
659.798	51.56340424
659.986	51.59924701
660.173	51.622507
660.361	51.6388371
660.549	51.67283982
660.737	51.70223813
660.925	51.75978756
661.113	51.80668707
661.3	51.83673301
661.488	51.85243197
661.676	51.85537834
661.864	51.87904314
662.051	51.91049645
662.239	51.93221534
662.427	51.95378394
662.614	51.98935869
662.802	52.00005871
662.99	52.03845205
663.177	52.04810344
663.365	52.04759183
663.553	52.07651456
663.74	52.10760559
663.928	52.11251421
664.115	52.12904587
664.303	52.16566919
664.49	52.18444032
664.678	52.18841224
664.866	52.18674087
665.053	52.19326794
665.24	52.22209834
665.428	52.25438996
665.615	52.28352761
665.803	52.30581168
665.99	52.30708475
666.178	52.32752855
666.365	52.34186866
666.552	52.33985826
666.74	52.38074956
666.927	52.38512475
667.114	52.40274797
667.302	52.44735546
667.489	52.4711401
667.676	52.45534319
667.864	52.48069258
668.051	52.4971261
668.238	52.50836378
668.425	52.53111526
668.613	52.5636674
668.8	52.57601564
668.987	52.6048633
669.174	52.63934741
669.361	52.65517674
669.548	52.67018392
669.736	52.69329317
669.923	52.7313857
670.11	52.75497272
670.297	52.76374509
670.484	52.77664501
670.671	52.80407371
670.858	52.80149763
671.045	52.83137278
671.232	52.83693373
671.419	52.82978674
671.606	52.85626728
671.793	52.87975611
671.98	52.90612342
672.167	52.92096369
672.354	52.94699168
672.541	52.94771532
672.728	52.96879427
672.915	52.96965351
673.101	52.94325522
673.288	52.97177657
673.475	52.99664563
673.662	53.01489463
673.849	53.01281858
674.035	53.02518862
674.222	53.0455038
674.409	53.08417872
674.596	53.08084581
674.783	53.12346136
674.969	53.13331377
675.156	53.15410751
675.343	53.18054207
675.529	53.19404056
675.716	53.18705914
675.903	53.17405748
676.089	53.18530385
676.276	53.17060309
676.462	53.18260549
676.649	53.22227026
676.836	53.25326931
677.022	53.28703175
677.209	53.28497218
677.395	53.27644802
677.582	53.2653811
677.768	53.29855113
677.955	53.30057676
678.141	53.30436938
678.328	53.29538148
678.514	53.29384793
678.701	53.29247726
678.887	53.2924182
679.073	53.28984378
679.26	53.27896293
679.446	53.29485255
679.632	53.30912033
679.819	53.31487641
680.005	53.31086514
680.191	53.31393281
680.378	53.29868443
680.564	53.28877877
680.75	53.28951399
680.936	53.29998921
681.123	53.30116163
681.309	53.28724365
681.495	53.2913776
681.681	53.27993473
681.867	53.26290458
682.054	53.25643577
682.24	53.24535619
682.426	53.24625107
682.612	53.2266505
682.798	53.24712841
682.984	53.23949403
683.17	53.26344592
683.356	53.25265288
683.542	53.28586744
683.728	53.28034449
683.914	53.26071693
684.1	53.27125892
684.286	53.2973544
684.472	53.28832648
684.658	53.28454253
684.844	53.24496818
685.03	53.21549667
685.216	53.23770061
685.402	53.2233632
685.588	53.21660904
685.774	53.18983355
685.96	53.19599262
686.145	53.18357381
686.331	53.19322036
686.517	53.2046054
686.703	53.1745706
686.889	53.1654195
687.074	53.13033878
687.26	53.11850662
687.446	53.10015909
687.631	53.08217776
687.817	53.11206006
688.003	53.10269228
688.189	53.07319037
688.374	53.06347022
688.56	53.07629197
688.745	53.07990998
688.931	53.07397425
689.117	53.07030367
689.302	53.08650895
689.488	53.08685535
689.673	53.13478847
689.859	53.11969583
690.044	53.11490399
690.23	53.11969152
690.415	53.11945597
690.601	53.14229372
690.786	53.14894255
690.972	53.16014814
691.157	53.15601694
691.343	53.1483274
691.528	53.17112933
691.713	53.17285268
691.899	53.16721496
692.084	53.19148467
692.269	53.19180548
692.455	53.18233688
692.64	53.20802571
692.825	53.24540965
693.011	53.23376421
693.196	53.2307309
693.381	53.21698373
693.566	53.22343345
693.752	53.24232179
693.937	53.25580811
694.122	53.23525527
694.307	53.27080748
694.492	53.25340709
694.678	53.25796963
694.863	53.25563574
695.048	53.26587624
695.233	53.24566265
695.418	53.23172794
695.603	53.22390215
695.788	53.22933743
695.973	53.21918796
696.158	53.21776301
696.343	53.19734784
696.528	53.18467708
696.713	53.19070105
696.898	53.21411983
697.083	53.22856358
697.268	53.23813524
697.453	53.22259916
697.638	53.23118819
697.823	53.24454518
698.008	53.22412539
698.192	53.18672822
698.377	53.18955808
698.562	53.19151377
698.747	53.22153608
698.932	53.22678952
699.117	53.25665976
699.301	53.2545682
699.486	53.26816609
699.671	53.29812155
699.856	53.30181534
700.04	53.29668266
700.225	53.32906531
700.41	53.32701351
700.594	53.30700932
700.779	53.30719383
700.964	53.29998067
701.148	53.29741939
701.333	53.30362732
701.517	53.2974761
701.702	53.29911637
701.887	53.346065
702.071	53.36173529
702.256	53.38734009
702.44	53.38895707
702.625	53.36884761
702.809	53.36908315
702.994	53.36439799
703.178	53.41131442
703.362	53.40006369
703.547	53.35225599
703.731	53.36713977
703.916	53.39792392
704.1	53.36334793
704.284	53.36825531
704.469	53.38698415
704.653	53.35781241
704.837	53.35304835
705.022	53.40182349
705.206	53.39550005
705.39	53.39020073
705.575	53.39636452
705.759	53.37253314
705.943	53.37067408
706.127	53.35063087
706.311	53.3636405
706.496	53.38033648
706.68	53.3627488
706.864	53.34539962
707.048	53.31681832
707.232	53.28473113
707.416	53.29068285
707.6	53.30821756
707.785	53.30981916
707.969	53.32678906
708.153	53.32674132
708.337	53.29859236
708.521	53.30204469
708.705	53.26938896
708.889	53.18828981
709.073	53.17399931
709.257	53.1534234
709.441	53.11393553
709.624	53.07482383
709.808	53.04495236
709.992	53.01471383
710.176	52.96313327
710.36	52.91051263
710.544	52.85440397
710.728	52.82318537
710.912	52.76289301
711.095	52.76770885
711.279	52.73840203
711.463	52.65038365
711.647	52.57000301
711.83	52.50265136
712.014	52.45924722
712.198	52.40617799
712.382	52.36382864
712.565	52.33376618
712.749	52.32184613
712.933	52.23821164
713.116	52.19923612
713.3	52.16556841
713.483	52.14714718
713.667	52.10788552
713.851	52.05720943
714.034	52.02355932
714.218	51.98592488
714.401	51.97299257
714.585	51.94676086
714.768	51.93879663
714.952	51.87850923
715.135	51.83851247
715.319	51.80198735
715.502	51.77883363
715.686	51.74927218
715.869	51.71387484
716.052	51.6810556
716.236	51.61767175
716.419	51.58432325
716.602	51.50158535
716.786	51.50052481
716.969	51.45499545
717.152	51.41333131
717.336	51.34704612
717.519	51.288468
717.702	51.24822322
717.885	51.23509836
718.069	51.2311255
718.252	51.19348322
718.435	51.14865702
718.618	51.09046606
718.801	51.0508373
718.985	51.02534531
719.168	51.01609384
719.351	50.9494414
719.534	50.92024009
719.717	50.88587516
719.9	50.86098518
720.083	50.86007368
720.266	50.8364258
720.449	50.86278407
720.632	50.84655913
720.815	50.81724934
720.998	50.81383065
721.181	50.81341497
721.364	50.82256728
721.547	50.84401462
721.73	50.80322843
721.913	50.77116129
722.096	50.77730006
722.279	50.78042135
722.461	50.78745022
722.644	50.755887
722.827	50.74370175
723.01	50.71605145
723.193	50.71476997
723.376	50.70398445
723.558	50.65538141
723.741	50.64123595
723.924	50.64311778
724.107	50.65038987
724.289	50.61553376
724.472	50.6259522
724.655	50.65143335
724.837	50.63613594
725.02	50.63406015
725.203	50.61312716
725.385	50.58036997
725.568	50.60394626
725.75	50.60815987
725.933	50.60168213
726.115	50.59425867
726.298	50.59926571
726.481	50.62927085
726.663	50.64949965
726.845	50.66445274
727.028	50.69318944
727.21	50.73337746
727.393	50.77880275
727.575	50.78787979
727.758	50.7954586
727.94	50.81323516
728.122	50.85343552
728.305	50.86293983
728.487	50.8617752
728.67	50.85031094
728.852	50.89940603
729.034	50.95996351
729.216	50.97079674
729.399	50.96241871
729.581	50.95002469
729.763	50.95537623
729.945	50.95460624
730.128	51.00415571
730.31	51.01617478
730.492	51.04524451
730.674	51.05509283
730.856	51.03796456
731.039	51.02611055
731.221	51.05696245
731.403	51.07160041
731.585	51.0777224
731.767	51.05486238
731.949	51.04602121
732.131	51.04648933
732.313	51.04917109
732.495	51.09609592
732.677	51.08623831
732.859	51.08346988
733.041	51.10546787
733.223	51.09950261
733.405	51.12693426
733.587	51.12770115
733.769	51.16296334
733.951	51.11833155
734.132	51.14363387
734.314	51.11023605
734.496	51.12061628
734.678	51.14940349
734.86	51.13416251
735.042	51.11267926
735.223	51.12419685
735.405	51.13226559
735.587	51.14633825
735.769	51.15750622
735.95	51.17553765
736.132	51.18222626
736.314	51.15593952
736.495	51.13707738
736.677	51.1194432
736.859	51.14455056
737.04	51.16442561
737.222	51.14760036
737.403	51.14937687
737.585	51.14627064
737.767	51.18271732
737.948	51.15985894
738.13	51.18350039
738.311	51.18908214
738.493	51.20415403
738.674	51.20327858
738.856	51.22757154
739.037	51.24799721
739.219	51.25911889
739.4	51.266218
739.581	51.29835421
739.763	51.28294124
739.944	51.30294526
740.125	51.31356182
740.307	51.33104136
740.488	51.31238819
740.669	51.2676363
740.851	51.30146969
741.032	51.33756714
741.213	51.35252419
741.395	51.34486627
741.576	51.35532566
741.757	51.36240669
741.938	51.33748667
742.119	51.34802303
742.301	51.32778776
742.482	51.34982674
742.663	51.33207127
742.844	51.30138739
743.025	51.27857885
743.206	51.27964499
743.387	51.25028131
743.568	51.23938522
743.749	51.2295624
743.93	51.23647108
744.111	51.23242257
744.292	51.25438108
744.473	51.27094246
744.654	51.24191686
744.835	51.2030141
745.016	51.21705484
745.197	51.226317
745.378	51.21198035
745.559	51.21749712
745.74	51.22724426
745.921	51.22040095
746.102	51.24753102
746.282	51.23390398
746.463	51.23678909
746.644	51.2404501
746.825	51.24343426
747.006	51.26011304
747.186	51.24969155
747.367	51.28931203
747.548	51.27461641
747.728	51.27132474
747.909	51.26250807
748.09	51.26211
748.27	51.27285886
748.451	51.2620046
748.632	51.26449589
748.812	51.24114985
748.993	51.21457141
749.173	51.20177852
749.354	51.22218332
749.535	51.21645682
749.715	51.1803399
749.896	51.15986153
750.076	51.16421225
750.257	51.13755902
750.437	51.13982352
750.618	51.13389765
750.798	51.11172093
750.978	51.1280101
751.159	51.07367329
751.339	51.08591043
751.52	51.09358906
751.7	51.1060333
751.88	51.08251078
752.061	51.06137643
752.241	51.04208996
752.421	51.03750986
752.601	51.00831402
752.782	50.97900386
752.962	50.97398132
753.142	50.90970159
753.322	50.87964305
753.503	50.88632797
753.683	50.83508507
753.863	50.83948311
754.043	50.84221026
754.223	50.81321296
754.403	50.78264702
754.583	50.75575695
754.764	50.68249657
754.944	50.65716472
755.124	50.5753944
755.304	50.50299841
755.484	50.42058534
755.664	50.38732966
755.844	50.32599245
756.024	50.28233555
756.204	50.22821514
756.384	50.20387954
756.564	50.17149024
756.743	50.09548217
756.923	50.02384082
757.103	49.96471583
757.283	49.88978167
757.463	49.87270472
757.643	49.78928503
757.823	49.71716485
758.002	49.69183156
758.182	49.65955681
758.362	49.59408089
758.542	49.60643891
758.721	49.57444766
758.901	49.60364607
759.081	49.57341689
759.261	49.5738132
759.44	49.54734098
759.62	49.55382623
759.8	49.58825472
759.979	49.62547675
760.159	49.63077871
760.338	49.66592766
760.518	49.6593219
760.698	49.72643276
760.877	49.79075992
761.057	49.82000404
761.236	49.86983314
761.416	49.86737177
761.595	49.93392025
761.775	49.93886619
761.954	49.97909616
762.133	50.03913697
762.313	50.07020148
762.492	50.11849213
762.672	50.15303686
762.851	50.22931777
763.03	50.27085928
763.21	50.32331426
763.389	50.35630112
763.568	50.37837999
763.748	50.39377417
763.927	50.42019554
764.106	50.44710371
764.286	50.51734995
764.465	50.57250463
764.644	50.58381738
764.823	50.61335483
765.002	50.6443179
765.182	50.71621323
765.361	50.73783844
765.54	50.79114124
765.719	50.81306736
765.898	50.82676689
766.077	50.85291953
766.256	50.87925603
766.435	50.89512859
766.614	50.91340287
766.793	50.93059442
766.972	50.95157837
767.151	50.96747181
767.33	50.99571462
767.509	51.02782985
767.688	51.06754517
767.867	51.06263209
768.046	51.06511557
768.225	51.05608185
768.404	51.0971639
768.583	51.12970972
768.762	51.12531722
768.94	51.12301973
769.119	51.08736656
769.298	51.12589636
769.477	51.11732763
769.656	51.13130885
769.834	51.11698285
770.013	51.14588829
770.192	51.1359753
770.37	51.14206071
770.549	51.17229797
770.728	51.18703207
770.906	51.20884462
771.085	51.20559044
771.264	51.18179815
771.442	51.19024694
771.621	51.21515751
771.799	51.19519374
771.978	51.19233429
772.157	51.19534873
772.335	51.19399164
772.514	51.18035252
772.692	51.17132805
772.871	51.19420375
773.049	51.1613528
773.228	51.17431255
773.406	51.17773105
773.584	51.19029694
773.763	51.16984405
773.941	51.17526312
774.119	51.16197658
774.298	51.15665352
774.476	51.13985911
774.655	51.11679489
774.833	51.13293399
775.011	51.13784675
775.189	51.13762611
775.368	51.14943859
775.546	51.17708606
775.724	51.19162654
775.902	51.17666341
776.08	51.1655803
776.259	51.17385312
776.437	51.19732365
776.615	51.21103804
776.793	51.19464883
776.971	51.22704196
777.149	51.19446509
777.327	51.18972008
777.505	51.17542133
777.683	51.18526279
777.861	51.21458051
778.04	51.20149769
778.218	51.19920408
778.395	51.21774342
778.573	51.19247543
778.751	51.19939281
778.929	51.1800005
779.107	51.15308511
779.285	51.16028884
779.463	51.15915932
779.641	51.13403718
779.819	51.12305873
779.997	51.11255825
780.174	51.10829147
780.352	51.10208889
780.53	51.1029258
780.708	51.07050745
780.886	51.10679496
781.063	51.10938505
781.241	51.115618
781.419	51.11669257
781.596	51.10338108
781.774	51.13780861
781.952	51.13780227
782.129	51.13761598
782.307	51.12229296
782.485	51.12219205
782.662	51.11427398
782.84	51.11441089
783.017	51.118996
783.195	51.08939742
783.372	51.09514711
783.55	51.10329705
783.727	51.09445438
783.905	51.07932978
784.082	51.07945412
784.26	51.10920025
784.437	51.08765536
784.615	51.09791628
784.792	51.10986124
784.969	51.11570434
785.147	51.10789902
785.324	51.09993465
785.501	51.04219732
785.679	51.04529244
785.856	51.00659353
786.033	51.03875721
786.211	51.04841894
786.388	51.05238797
786.565	51.07972085
786.742	51.09086878
786.92	51.11429929
787.097	51.132577
787.274	51.10317331
787.451	51.1271633
787.628	51.12052009
787.805	51.1323747
787.982	51.08902487
788.16	51.12106146
788.337	51.10127337
788.514	51.0919844
788.691	51.13087166
788.868	51.1087774
789.045	51.1276462
789.222	51.13302411
789.399	51.12431855
789.576	51.18092828
789.753	51.16699861
789.93	51.15051339
790.106	51.15052745
790.283	51.11697763
790.46	51.06115326
790.637	51.08790821
790.814	51.08779003
790.991	51.13915223
791.168	51.17222981
791.344	51.19792906
791.521	51.18838355
791.698	51.22701212
791.875	51.19438017
792.051	51.18680778
792.228	51.16884652
792.405	51.14524137
792.581	51.21295549
792.758	51.16740923
792.935	51.19053283
793.111	51.19356467
793.288	51.16713731
793.465	51.15813597
793.641	51.15063432
793.818	51.15513361
793.994	51.14143031
794.171	51.16345487
794.347	51.12984267
794.524	51.14919979
794.7	51.11189229
794.877	51.04495523
795.053	51.00585361
795.23	51.00340372
795.406	50.99936029
795.583	51.0482631
795.759	51.07189352
795.935	51.066573
796.112	51.04161647
796.288	50.9975395
796.464	50.99642955
796.641	51.01634654
796.817	51.029397
796.993	50.99323431
797.169	51.002164
797.346	50.99904153
797.522	50.99222978
797.698	50.98157744
797.874	50.96212837
798.051	50.92707074
798.227	50.86224127
798.403	50.87584417
798.579	50.90775114
798.755	50.93801484
798.931	50.93397382
799.107	50.8820344
799.283	50.86121143
799.459	50.82235921
799.635	50.83197388
799.811	50.8037812
799.987	50.79845387
800.163	50.78864966
800.339	50.75282642
800.515	50.76377867
800.691	50.77917671
800.867	50.75526715
801.043	50.75198327
801.219	50.71653397
801.395	50.75139612
801.571	50.73062177
801.746	50.70753537
801.922	50.72709687
802.098	50.71371148
802.274	50.65494589
802.45	50.61245489
802.625	50.57725869
802.801	50.54347571
802.977	50.49080125
803.152	50.46376385
803.328	50.46405825
803.504	50.46854841
803.679	50.43683877
803.855	50.4222713
804.031	50.34109559
804.206	50.23724114
804.382	50.19999967
804.557	50.19497438
804.733	50.16184161
804.909	50.13159608
805.084	50.06231243
805.26	50.04244251
805.435	50.00938852
805.61	49.95984043
805.786	49.90537382
805.961	49.91067117
806.137	49.85193229
806.312	49.81294881
806.488	49.79830667
806.663	49.74434594
806.838	49.68939665
807.014	49.62478317
807.189	49.53611334
807.364	49.44874818
807.54	49.34859542
807.715	49.33468332
807.89	49.30299294
808.065	49.22776619
808.241	49.05785091
808.416	48.96677189
808.591	48.89877149
808.766	48.84302282
808.941	48.77043586
809.116	48.68960602
809.291	48.55739814
809.467	48.49123546
809.642	48.36720209
809.817	48.30104599
809.992	48.25174307
810.167	48.12382213
810.342	48.07094351
810.517	48.0360259
810.692	47.9185087
810.867	47.77121767
811.042	47.70654267
811.217	47.64528527
811.392	47.60271296
811.567	47.56035142
811.741	47.55637164
811.916	47.61806545
812.091	47.56636901
812.266	47.56122365
812.441	47.51789757
812.616	47.41628584
812.79	47.41586887
812.965	47.40076425
813.14	47.37967492
813.315	47.38196467
813.489	47.37796772
813.664	47.35281882
813.839	47.37408776
814.013	47.3238127
814.188	47.26764011
814.363	47.24591122
814.537	47.34687879
814.712	47.29275036
814.887	47.218046
815.061	47.1088768
815.236	47.006997
815.41	46.94806461
815.585	46.82939518
815.759	46.83100249
815.934	46.75120165
816.108	46.67080494
816.283	46.63567665
816.457	46.55873257
816.631	46.49715878
816.806	46.46713178
816.98	46.417867
817.155	46.28662477
817.329	46.15864766
817.503	46.10302807
817.678	46.02276689
817.852	45.97024461
818.026	45.88830803
818.201	45.75266795
818.375	45.70942705
818.549	45.70826276
818.723	45.71512107
818.897	45.62507786
819.072	45.53966839
819.246	45.52709403
819.42	45.41174519
819.594	45.33087102
819.768	45.34510761
819.942	45.26599224
820.116	45.15580324
820.29	45.08872201
820.465	44.97453269
820.639	44.91961123
820.813	44.89875929
820.987	44.82541257
821.161	44.75593372
821.335	44.66597975
821.509	44.58657349
821.682	44.63716973
821.856	44.64623926
822.03	44.54646803
822.204	44.468665
822.378	44.35384908
822.552	44.35018097
822.726	44.2271423
822.9	44.11819455
823.073	44.06108451
823.247	44.00671287
823.421	43.87903365
823.595	43.89104192
823.768	43.85573389
823.942	43.82568098
824.116	43.76001527
824.289	43.63204931
824.463	43.52024545
824.637	43.56968438
824.81	43.51812623
824.984	43.55215452
825.158	43.49078945
825.331	43.28583858
825.505	43.2559139
825.678	43.17620189
825.852	43.16806495
826.025	43.17020741
826.199	43.05404153
826.372	43.0785568
826.546	43.01017588
826.719	42.89806442
826.893	42.83129066
827.066	42.80343129
827.24	42.76190681
827.413	42.73947858
827.586	42.66768608
827.76	42.72126631
827.933	42.70587154
828.106	42.78720266
828.28	42.63192812
828.453	42.55012737
828.626	42.43543662
828.799	42.43043164
828.973	42.41523424
829.146	42.27129436
829.319	42.2605591
829.492	42.24784163
829.665	42.1798789
829.839	42.27464135
830.012	42.22437038
830.185	42.25285046
830.358	42.35599969
830.531	42.30054222
830.704	42.27549115
830.877	42.24976422
831.05	42.2395315
831.223	42.23652885
831.396	42.09218244
831.569	42.08692894
831.742	41.95362048
831.915	42.01224934
832.088	41.9788079
832.261	42.00471047
832.434	41.9346433
832.607	41.93469729
832.779	41.96247557
832.952	41.86220683
833.125	41.81311557
833.298	41.75567516
833.471	41.68944208
833.643	41.6315842
833.816	41.5750288
833.989	41.44062712
834.162	41.39172769
834.334	41.3413806
834.507	41.32318143
834.68	41.26897423
834.852	41.31202485
835.025	41.26350585
835.198	41.22273815
835.37	41.22974289
835.543	41.11753157
835.715	41.06246526
835.888	40.99948343
836.061	40.96188938
836.233	40.87893835
836.406	40.73819123
836.578	40.78623405
836.751	40.63764534
836.923	40.58760228
837.095	40.53207911
837.268	40.48286334
837.44	40.44589986
837.613	40.41536541
837.785	40.40040417
837.957	40.35764554
838.13	40.20020624
838.302	40.14553996
838.474	39.9659968
838.647	39.92294663
838.819	39.80800487
838.991	39.71677854
839.163	39.67887784
839.336	39.64739585
839.508	39.58627349
839.68	39.42543877
839.852	39.41892377
840.024	39.38017995
840.196	39.37479004
840.368	39.38512882
840.541	39.30399677
840.713	39.25987285
840.885	39.15973252
841.057	39.05666852
841.229	39.08457302
841.401	38.94854099
841.573	38.90550283
841.745	38.77027916
841.917	38.67491164
842.089	38.73096939
842.261	38.65618336
842.432	38.64693089
842.604	38.57747396
842.776	38.49959447
842.948	38.46646651
843.12	38.40302785
843.292	38.46932091
843.464	38.40493992
843.635	38.34283962
843.807	38.21158898
843.979	38.13009181
844.151	38.10111947
844.322	37.92328075
844.494	37.83690573
844.666	37.69793362
844.837	37.5562094
845.009	37.54395378
845.181	37.41553504
845.352	37.3603685
845.524	37.26252378
845.695	36.99886406
845.867	36.90414272
846.039	36.75780025
846.21	36.66902888
846.382	36.51338942
846.553	36.35778032
846.725	36.29372586
846.896	36.14870352
847.068	36.0326915
847.239	35.96973675
847.41	35.93408524
847.582	35.70807362
847.753	35.55257975
847.925	35.53012657
848.096	35.5361456
848.267	35.5734361
848.439	35.38990628
848.61	35.39690515
848.781	35.36122583
848.952	35.4573689
849.124	35.46671908
849.295	35.51208549
849.466	35.36484469
849.637	35.31984299
849.808	35.29171466
849.98	35.37335837
850.151	35.23688417
850.322	35.17097902
850.493	35.12049361
850.664	35.02209835
850.835	35.00319384
851.006	34.79012971
851.177	34.87443799
851.348	34.87107146
851.519	34.88405969
851.69	34.81818464
851.861	34.72229103
852.032	34.79865222
852.203	34.7403059
852.374	34.66298714
852.545	34.44741724
852.716	34.30451884
852.887	34.18696433
853.057	34.22458985
853.228	34.19315966
853.399	34.07447629
853.57	33.85000067
853.741	33.96719031
853.911	33.87007207
854.082	33.71362823
854.253	33.74517827
854.424	33.69376153
854.594	33.83792552
854.765	33.88961703
854.936	33.7270448
855.106	33.56465528
855.277	33.44145495
855.447	33.39076645
855.618	33.31995679
855.789	33.33020536
855.959	33.12663514
856.13	33.08848851
856.3	33.12787948
856.471	33.03756556
856.641	33.050675
856.812	32.90757892
856.982	32.79804659
857.153	32.76222753
857.323	32.55880561
857.493	32.41463768
857.664	32.45712768
857.834	32.22353975
858.004	32.06331103
858.175	31.89202905
858.345	31.55390305
858.515	31.56704114
858.686	31.41752958
858.856	31.37614763
859.026	31.20192608
859.196	31.0425584
859.367	30.74899932
859.537	30.75861873
859.707	30.65997653
859.877	30.54012689
860.047	30.47167011
860.217	30.32865081
860.387	30.38371965
860.558	30.37051215
860.728	30.24037927
860.898	30.30103949
861.068	30.30060789
861.238	30.14754349
861.408	30.11224595
861.578	30.09513969
861.748	30.04030777
861.918	30.05899517
862.088	29.93821391
862.257	29.85899924
862.427	29.8592977
862.597	29.84907755
862.767	29.89655432
862.937	29.8601375
863.107	29.91591769
863.277	29.83052537
863.446	29.6102185
863.616	29.57222501
863.786	29.46482598
863.956	29.19796709
864.125	29.00972878
864.295	28.98464707
864.465	28.75045321
864.634	28.63136578
864.804	28.75745842
864.974	28.67185963
865.143	28.57879725
865.313	28.37845786
865.482	28.19494636
865.652	28.10199277
865.822	28.19175974
865.991	28.15172969
866.161	28.02639565
866.33	27.86911758
866.5	27.85038581
866.669	27.43491642
866.838	27.34878057
867.008	27.5016868
867.177	27.25160548
867.347	26.95979354
867.516	26.84457178
867.685	26.75101522
867.855	26.60554896
868.024	26.58279282
868.193	26.39851888
868.363	26.20289092
868.532	26.2813146
868.701	26.17261224
868.87	26.12964886
869.04	25.96859786
869.209	25.99608694
869.378	25.81822318
869.547	25.5570068
869.716	25.56291138
869.885	25.53498199
870.055	25.43054457
870.224	25.52233771
870.393	25.45495003
870.562	25.33780829
870.731	25.44826174
870.9	25.64079985
871.069	25.54096675
871.238	25.52055087
871.407	25.65626433
871.576	25.62214398
871.745	25.62669168
871.914	25.23109857
872.083	25.23609742
872.251	25.24882544
872.42	25.18591044
872.589	25.22016031
872.758	24.86361161
872.927	24.67257365
873.096	24.72897472
873.264	24.66898786
873.433	24.63016908
873.602	24.62967004
873.771	24.54130751
873.939	24.73882636
874.108	24.49792467
874.277	24.31834182
874.445	24.14551768
874.614	24.19631323
874.783	24.16979845
874.951	24.03975365
875.12	24.21287623
875.288	24.16171639
875.457	24.26046478
875.625	23.90302013
875.794	23.70485636
875.962	23.57552561
876.131	23.59273891
876.299	23.6519639
876.468	23.64675693
876.636	23.41422864
876.805	23.09812063
876.973	22.85031405
877.141	22.79491982
877.31	22.69163682
877.478	22.30522465
877.647	22.19482261
877.815	22.29105804
877.983	21.97530111
878.151	22.10911508
878.32	22.02899995
878.488	21.92611681
878.656	21.48514126
878.824	21.45788058
878.992	21.59513715
879.161	21.73923171
879.329	21.54569207
879.497	21.41414852
879.665	21.35878433
879.833	21.51939634
880.001	21.43394947
880.169	21.23982571
880.337	21.28600901
880.505	21.17873097
880.673	21.00894737
880.841	21.15709443
881.009	21.59431063
881.177	21.45204143
881.345	21.14429572
881.513	21.38302991
881.681	20.82924506
881.849	20.76565321
882.017	20.75313228
882.185	20.85009227
882.352	20.68941346
882.52	20.38416161
882.688	19.91148418
882.856	19.92816432
883.024	19.86363465
883.191	19.65133317
883.359	19.24027994
883.527	19.1318755
883.694	19.26577631
883.862	19.45324362
884.03	19.28637238
884.197	18.92304218
884.365	18.83201455
884.533	18.27793074
884.7	18.17221455
884.868	18.11645405
885.035	17.72050061
885.203	18.34949823
885.37	18.28080056
885.538	18.06996736
885.705	17.79891166
885.873	17.77411167
886.04	17.73548161
886.208	17.93582855
886.375	17.96633788
886.542	18.04324342
886.71	18.12963698
886.877	18.4590334
