Data from carapace2_Reflection_09-01-59-454.txt Node
Date: Wed Dec 06 09:01:59 AEST 2023
User: uqkchene_local
Spectrometer: USB4E02642
Trigger mode: 4
Integration Time (sec): 1.700000E-2
Scans to average: 10
Electric dark correction enabled: true
Nonlinearity correction enabled: false
Boxcar width: 10
XAxis mode: Wavelengths
Number of Pixels in Spectrum: 3648
>>>>>Begin Spectral Data<<<<<
179.217	-5.47709266
179.432	-46.96356275
179.647	-11.2895133
179.862	-53.2210109
180.077	-170.4
180.293	5.92105263
180.508	-390.6122449
180.723	-90.0621118
180.938	81.42470694
181.153	32.83815481
181.368	34.12777226
181.583	27.77907793
181.798	29.10324592
182.013	29.12723449
182.228	31.64826394
182.443	32.02442236
182.658	35.28000834
182.873	34.0807601
183.088	35.12469561
183.303	34.93637286
183.518	37.9224549
183.733	35.27580955
183.948	34.04734376
184.162	37.46253746
184.377	39.48763744
184.592	41.90429097
184.807	42.68896182
185.022	41.30554032
185.237	41.50157844
185.452	44.92161478
185.667	46.95065485
185.882	48.98946512
186.096	48.77739381
186.311	50.11085471
186.526	51.54567719
186.741	51.02477111
186.956	50.78778812
187.17	52.51224034
187.385	50.19303179
187.6	50.17370199
187.815	50.18297609
188.03	51.81524517
188.244	49.82917088
188.459	49.18589208
188.674	51.12792898
188.889	46.93837848
189.103	47.24989173
189.318	47.55641835
189.533	47.77509486
189.747	47.46471254
189.962	43.62635728
190.177	42.06253601
190.391	39.57412207
190.606	39.31538014
190.821	37.71978437
191.035	34.41522665
191.25	34.72766021
191.465	33.45383341
191.679	28.64352347
191.894	31.24469943
192.109	31.42150803
192.323	32.69110351
192.538	32.19265491
192.752	35.72677028
192.967	36.94318235
193.181	34.40896575
193.396	36.69526868
193.611	36.72564306
193.825	34.87597353
194.04	35.12272011
194.254	34.61904115
194.469	36.04206931
194.683	37.78373471
194.898	39.39313164
195.112	45.6379048
195.327	45.41716942
195.541	48.14491869
195.756	47.49794203
195.97	47.31052873
196.184	48.80770973
196.399	48.3937482
196.613	49.17491749
196.828	48.72725738
197.042	49.67917393
197.257	49.16768511
197.471	46.44817904
197.685	47.13544857
197.9	44.63295137
198.114	43.2698143
198.328	43.64631787
198.543	44.41455238
198.757	41.61837486
198.971	42.72332746
199.186	42.41919645
199.4	42.00041938
199.614	36.26279498
199.829	37.35653771
200.043	39.01296979
200.257	39.05957677
200.471	39.18351774
200.686	42.19561874
200.9	41.1274197
201.114	40.92105796
201.328	39.8064439
201.543	39.35265428
201.757	39.24162612
201.971	41.71655104
202.185	41.05884668
202.399	42.57029657
202.614	43.51073398
202.828	44.06071524
203.042	42.42711453
203.256	45.15540666
203.47	44.70767063
203.684	44.86839717
203.899	44.20658183
204.113	45.0159475
204.327	45.07482443
204.541	43.79319362
204.755	44.68563716
204.969	46.28769864
205.183	45.83851869
205.397	47.17657823
205.611	46.42576591
205.825	47.86861258
206.039	45.46955315
206.253	44.44403977
206.467	43.62974136
206.681	42.9402452
206.895	42.81565327
207.109	43.3002343
207.323	41.81445335
207.537	43.1808894
207.751	42.44149273
207.965	40.27854742
208.179	40.66960419
208.393	39.99474494
208.607	40.83728573
208.821	41.90031734
209.035	40.69398274
209.249	41.49091045
209.463	39.22504719
209.677	38.2981086
209.891	38.30544011
210.104	38.85095628
210.318	39.53382604
210.532	40.29406149
210.746	40.20357242
210.96	41.00371021
211.174	42.42902816
211.387	43.57364311
211.601	41.7620548
211.815	44.11570312
212.029	42.76384033
212.243	44.13376977
212.456	46.25809785
212.67	44.612286
212.884	44.95534496
213.098	44.52153017
213.311	42.12657642
213.525	42.39622712
213.739	41.67645165
213.953	41.25427423
214.166	41.80592093
214.38	42.6227666
214.594	41.06465336
214.807	41.95561984
215.021	41.38024357
215.235	42.63881046
215.448	41.95048239
215.662	42.10965104
215.876	39.66899712
216.089	40.3667931
216.303	40.17825312
216.516	42.87457793
216.73	42.84016637
216.944	41.26023496
217.157	40.20048393
217.371	40.71802833
217.584	39.49147851
217.798	40.67374906
218.011	39.90598815
218.225	41.30529657
218.439	41.33859854
218.652	41.17551087
218.866	40.34694123
219.079	43.34593352
219.293	40.73474423
219.506	41.40800122
219.719	39.61171794
219.933	39.21016045
220.146	37.23193973
220.36	39.19506485
220.573	40.64819304
220.787	40.50806601
221	37.66146243
221.214	35.88683682
221.427	35.21891617
221.64	36.98904057
221.854	35.43698753
222.067	38.11035063
222.28	37.20830574
222.494	40.20793878
222.707	35.85142723
222.92	37.38855224
223.134	35.55269019
223.347	34.35317073
223.56	31.2566205
223.774	32.24199838
223.987	30.65342353
224.2	30.25400485
224.414	32.73792911
224.627	35.04513541
224.84	35.22517932
225.053	35.47562817
225.267	34.89051095
225.48	35.71564922
225.693	36.23899989
225.906	38.78047853
226.119	39.17450566
226.333	42.11094967
226.546	40.86408307
226.759	42.03557384
226.972	40.29621503
227.185	41.67858321
227.398	43.338219
227.612	44.20219812
227.825	45.15118448
228.038	46.48301966
228.251	47.77649487
228.464	49.55773368
228.677	52.2383092
228.89	51.96395795
229.103	51.31687107
229.316	51.76482285
229.529	50.70183043
229.743	51.55483892
229.956	51.21096977
230.169	52.94696448
230.382	53.67327606
230.595	52.31053604
230.808	51.06818258
231.021	51.78076568
231.234	53.09719193
231.447	54.17213197
231.66	54.66241149
231.872	54.55380533
232.085	53.79576239
232.298	53.60340274
232.511	53.42766111
232.724	51.93311722
232.937	51.67296557
233.15	51.12478094
233.363	48.87542946
233.576	48.14349087
233.789	46.96409064
234.002	46.31922281
234.214	44.34812881
234.427	44.91528409
234.64	45.36034917
234.853	44.37555994
235.066	45.61961611
235.279	47.29296619
235.491	47.21723519
235.704	46.90816566
235.917	44.82506562
236.13	43.61154472
236.342	41.48160591
236.555	43.97021493
236.768	44.85022847
236.981	45.32359573
237.193	46.21922134
237.406	46.35428957
237.619	44.77863251
237.832	44.98093599
238.044	47.01052703
238.257	47.25085318
238.47	46.89839753
238.682	47.64181331
238.895	49.57232919
239.108	47.44292082
239.32	47.98480621
239.533	47.88231709
239.746	45.88671727
239.958	44.43465699
240.171	43.50294292
240.383	45.68013104
240.596	45.93179518
240.808	47.04250437
241.021	45.61709121
241.234	43.93145493
241.446	42.93086693
241.659	40.55106219
241.871	39.55552612
242.084	39.06244867
242.296	38.1692794
242.509	37.46212967
242.721	37.0474571
242.934	38.87815539
243.146	38.7007536
243.359	35.68913561
243.571	36.81977904
243.784	35.83132142
243.996	34.82099544
244.208	35.46735785
244.421	35.42179752
244.633	35.09719572
244.846	32.2705534
245.058	33.94489528
245.27	33.45151793
245.483	31.41493084
245.695	29.76342816
245.907	31.34385462
246.12	32.6725709
246.332	33.23502068
246.544	33.93751795
246.757	34.92037752
246.969	34.41110057
247.181	34.08424105
247.394	33.78695608
247.606	34.3344521
247.818	36.2427408
248.03	35.36100646
248.243	35.25713697
248.455	36.83751217
248.667	35.70229987
248.879	37.12118818
249.092	36.47912886
249.304	37.45369598
249.516	36.59979165
249.728	37.25690542
249.94	38.84733832
250.153	41.0693361
250.365	40.04723924
250.577	39.70251325
250.789	39.53842428
251.001	38.11862486
251.213	37.80086227
251.425	35.29432026
251.637	36.09857099
251.85	33.71651306
252.062	32.93714286
252.274	31.24735178
252.486	32.50280944
252.698	31.57154906
252.91	31.17641428
253.122	31.9443117
253.334	30.12063864
253.546	31.25060017
253.758	32.19695751
253.97	33.27708732
254.182	32.23225475
254.394	31.3523465
254.606	31.08577739
254.818	32.51280729
255.03	34.04569144
255.242	33.45053228
255.454	34.88326013
255.666	35.56397168
255.877	38.49417447
256.089	39.5024683
256.301	40.46780285
256.513	42.65883609
256.725	43.78825064
256.937	45.06813033
257.149	47.96198655
257.361	46.09075316
257.572	45.59147334
257.784	45.62943069
257.996	44.31249016
258.208	44.43860679
258.42	41.29518536
258.631	41.88135859
258.843	42.42433707
259.055	43.67552272
259.267	42.23685437
259.479	40.54899997
259.69	41.73991366
259.902	42.23646504
260.114	41.58195978
260.325	40.49437362
260.537	38.08599344
260.749	38.10607274
260.961	37.83792309
261.172	38.51939953
261.384	37.42964058
261.596	35.24969225
261.807	36.03364172
262.019	36.99234549
262.23	36.07726699
262.442	36.17976
262.654	31.394203
262.865	34.74488258
263.077	33.86127982
263.288	35.45343582
263.5	32.92869962
263.712	33.88923542
263.923	34.23786583
264.135	34.52048494
264.346	34.69806883
264.558	35.03091061
264.769	35.37317891
264.981	38.2223526
265.192	37.44110185
265.404	36.94708591
265.615	36.50156327
265.827	34.23900376
266.038	35.06775068
266.25	35.40229167
266.461	34.8782875
266.673	38.46965045
266.884	38.8540203
267.095	42.69694954
267.307	42.66296544
267.518	44.27876514
267.73	43.06700452
267.941	44.31447139
268.152	42.94913877
268.364	43.45711092
268.575	42.56922379
268.786	41.73620172
268.998	41.58371447
269.209	40.72268857
269.42	39.67674185
269.632	40.81824523
269.843	39.76039288
270.054	39.25368995
270.265	39.44514424
270.477	39.93283514
270.688	38.74221936
270.899	41.17933575
271.11	38.34077266
271.322	39.35729413
271.533	38.91909955
271.744	38.29116773
271.955	35.93239304
272.166	35.60643528
272.378	35.33620306
272.589	35.42210618
272.8	35.49189025
273.011	37.14421393
273.222	37.23968362
273.433	38.44834216
273.644	39.70766278
273.856	38.57188489
274.067	39.25977371
274.278	39.70070674
274.489	39.6946786
274.7	40.82870279
274.911	40.9738211
275.122	43.5956854
275.333	41.84828335
275.544	42.26487317
275.755	41.62101494
275.966	41.37847772
276.177	39.53032736
276.388	40.89055707
276.599	40.63520821
276.81	39.82413099
277.021	39.97859319
277.232	39.5551917
277.443	38.22797275
277.654	38.92604728
277.865	38.14732571
278.076	36.22841892
278.287	37.45622277
278.497	36.22751939
278.708	36.6432263
278.919	35.36809383
279.13	34.25697806
279.341	32.26175461
279.552	29.97675752
279.763	28.53623673
279.973	27.98155396
280.184	27.54655479
280.395	29.30776234
280.606	30.7663137
280.817	31.09528859
281.027	32.22017166
281.238	33.57144915
281.449	35.16156094
281.66	33.49703294
281.87	33.26283012
282.081	32.2883452
282.292	32.652054
282.503	33.42706898
282.713	33.87719346
282.924	34.00425779
283.135	33.02018188
283.345	34.12730783
283.556	35.21474368
283.767	35.90307786
283.977	36.46427726
284.188	37.02436825
284.399	39.11033463
284.609	39.08901459
284.82	38.6969152
285.03	39.3039213
285.241	38.18679065
285.451	39.37598627
285.662	39.05503548
285.873	37.59384023
286.083	39.46179748
286.294	39.69442533
286.504	39.96364722
286.715	39.13043478
286.925	40.03973762
287.136	39.67574685
287.346	39.44045022
287.557	40.57823783
287.767	40.82211393
287.978	40.81010335
288.188	41.61075663
288.399	41.8320733
288.609	40.66373661
288.819	38.64356972
289.03	38.35710472
289.24	36.21371201
289.451	37.17243929
289.661	37.44603883
289.871	36.26457839
290.082	36.63305256
290.292	35.12530411
290.502	35.01481635
290.713	34.51993992
290.923	33.60839378
291.133	34.60284561
291.344	33.76536984
291.554	33.10222408
291.764	33.18805123
291.974	33.1801161
292.185	32.29217001
292.395	29.97762436
292.605	30.88394844
292.815	29.64132518
293.026	29.77248837
293.236	30.03497046
293.446	29.21074044
293.656	29.61818268
293.866	28.09075119
294.077	27.15059716
294.287	26.47062984
294.497	26.03990759
294.707	26.62321927
294.917	25.89775061
295.127	25.04059532
295.337	24.63713645
295.548	23.82183274
295.758	23.90571058
295.968	23.29790939
296.178	23.07911288
296.388	22.37661956
296.598	21.95696697
296.808	21.8845782
297.018	20.52189139
297.228	20.35362641
297.438	20.17315581
297.648	19.8188036
297.858	19.9394726
298.068	19.40927586
298.278	18.97646064
298.488	19.08442589
298.698	18.78211071
298.908	18.36336603
299.118	18.2051652
299.328	17.86554589
299.538	17.95314104
299.748	17.84078308
299.957	17.79793662
300.167	17.42710483
300.377	17.31256181
300.587	16.93684798
300.797	16.63454861
301.007	16.70522093
301.217	16.81655428
301.426	16.83821595
301.636	16.7448253
301.846	16.64228068
302.056	16.65139209
302.266	16.44873733
302.475	16.44529011
302.685	16.57171158
302.895	16.39542632
303.105	16.42677213
303.314	16.36862431
303.524	16.3091024
303.734	16.34549265
303.944	16.1943958
304.153	16.12825885
304.363	16.0453321
304.573	15.9834884
304.782	15.92733818
304.992	15.95410986
305.202	15.96457288
305.411	15.88721009
305.621	15.78280682
305.831	15.69154539
306.04	15.65836841
306.25	15.66668404
306.459	15.52755761
306.669	15.51640724
306.878	15.52273914
307.088	15.36358007
307.298	15.34011228
307.507	15.22717594
307.717	15.21222682
307.926	15.11921221
308.136	15.07415875
308.345	15.106482
308.555	15.11122799
308.764	15.07799256
308.974	15.02136623
309.183	14.9883941
309.392	14.97846606
309.602	14.97928175
309.811	14.99000269
310.021	14.90334423
310.23	14.91972248
310.44	14.91605643
310.649	14.88251991
310.858	14.89589491
311.068	14.87430898
311.277	14.83221892
311.486	14.8565496
311.696	14.79710114
311.905	14.82487918
312.114	14.83100736
312.324	14.83323726
312.533	14.82151421
312.742	14.7901766
312.952	14.75363932
313.161	14.72120713
313.37	14.73330792
313.579	14.76514111
313.789	14.75655953
313.998	14.73278846
314.207	14.72596755
314.416	14.75963859
314.625	14.72480437
314.835	14.69449709
315.044	14.681096
315.253	14.68011771
315.462	14.65618958
315.671	14.6602963
315.88	14.66476782
316.09	14.683064
316.299	14.67841973
316.508	14.64477285
316.717	14.64971346
316.926	14.63398696
317.135	14.60303822
317.344	14.60382143
317.553	14.60738486
317.762	14.60837282
317.971	14.58670471
318.18	14.57081606
318.389	14.57309641
318.598	14.54557288
318.807	14.54555704
319.016	14.54900214
319.225	14.54875528
319.434	14.53966989
319.643	14.51753574
319.852	14.53924014
320.061	14.51398419
320.27	14.49432368
320.479	14.50799464
320.688	14.49661094
320.897	14.51154451
321.105	14.50785978
321.314	14.51502402
321.523	14.54806987
321.732	14.58088025
321.941	14.58382552
322.15	14.58141141
322.359	14.58682507
322.567	14.59601702
322.776	14.59461386
322.985	14.6199332
323.194	14.63869964
323.403	14.64486799
323.611	14.64595201
323.82	14.65859855
324.029	14.68238076
324.237	14.68479669
324.446	14.71765366
324.655	14.73803661
324.864	14.74988909
325.072	14.75440768
325.281	14.77188431
325.49	14.782476
325.698	14.79696222
325.907	14.80222121
326.116	14.79040934
326.324	14.79780741
326.533	14.82066078
326.741	14.82926427
326.95	14.84207883
327.159	14.85755014
327.367	14.8651803
327.576	14.86461914
327.784	14.8840267
327.993	14.91376001
328.201	14.91658416
328.41	14.92407372
328.618	14.95983196
328.827	14.96597649
329.035	14.98610415
329.244	15.00121169
329.452	15.02401218
329.661	15.01845478
329.869	15.01991546
330.078	15.02160715
330.286	15.05246803
330.495	15.06195216
330.703	15.08878147
330.911	15.10207424
331.12	15.11571239
331.328	15.12748403
331.537	15.12717212
331.745	15.15714971
331.953	15.16907035
332.162	15.1848782
332.37	15.21184018
332.578	15.24085664
332.787	15.26991195
332.995	15.27065857
333.203	15.29165938
333.411	15.30157311
333.62	15.3130401
333.828	15.32046126
334.036	15.34349803
334.244	15.38426866
334.453	15.39498574
334.661	15.40561263
334.869	15.4295206
335.077	15.44570516
335.285	15.45238209
335.494	15.48587898
335.702	15.50219913
335.91	15.52391847
336.118	15.52924194
336.326	15.56014683
336.534	15.58946142
336.742	15.57633504
336.951	15.5965813
337.159	15.58289524
337.367	15.59569547
337.575	15.62558123
337.783	15.64388414
337.991	15.64878432
338.199	15.66450696
338.407	15.6985464
338.615	15.70566454
338.823	15.73256488
339.031	15.72728255
339.239	15.74535241
339.447	15.76248552
339.655	15.78900555
339.863	15.79519
340.071	15.82297954
340.279	15.86345701
340.487	15.86882352
340.695	15.87421344
340.903	15.87383822
341.11	15.9016275
341.318	15.91358447
341.526	15.94918125
341.734	15.96932932
341.942	15.96220891
342.15	15.97083312
342.358	15.98703426
342.565	16.02438477
342.773	16.02622192
342.981	16.05509803
343.189	16.07710617
343.397	16.10703328
343.604	16.12676427
343.812	16.14118337
344.02	16.1581502
344.228	16.17509502
344.435	16.17908939
344.643	16.16746583
344.851	16.18107111
345.058	16.21264017
345.266	16.22952605
345.474	16.25385831
345.681	16.26229507
345.889	16.27732114
346.097	16.288948
346.304	16.3053586
346.512	16.32190599
346.72	16.3448779
346.927	16.3472582
347.135	16.3625371
347.342	16.36119962
347.55	16.37697516
347.758	16.39366484
347.965	16.40566026
348.173	16.42029648
348.38	16.43082472
348.588	16.44525764
348.795	16.47185121
349.003	16.48655562
349.21	16.48389186
349.418	16.49588864
349.625	16.51850146
349.833	16.53783094
350.04	16.56195915
350.247	16.56814092
350.455	16.58931757
350.662	16.59458422
350.87	16.61355257
351.077	16.62364777
351.284	16.63968722
351.492	16.64414071
351.699	16.66514923
351.906	16.67847173
352.114	16.67905481
352.321	16.70473286
352.528	16.72256659
352.736	16.7430919
352.943	16.74025594
353.15	16.74486258
353.358	16.7624927
353.565	16.79480184
353.772	16.79182649
353.979	16.81195444
354.187	16.80080287
354.394	16.81240568
354.601	16.8365609
354.808	16.84384502
355.015	16.85576703
355.223	16.86152652
355.43	16.86970225
355.637	16.87799271
355.844	16.90987601
356.051	16.92036638
356.258	16.94262407
356.465	16.94626563
356.673	16.93703304
356.88	16.93797138
357.087	16.95130162
357.294	16.97329773
357.501	16.9839399
357.708	16.99352161
357.915	17.01004439
358.122	17.01580683
358.329	17.01905741
358.536	17.03349354
358.743	17.04603315
358.95	17.06130748
359.157	17.05826264
359.364	17.07433099
359.571	17.10587272
359.778	17.12993636
359.985	17.14864658
360.192	17.14250921
360.399	17.15388048
360.606	17.15473367
360.812	17.17051509
361.019	17.18181361
361.226	17.19934131
361.433	17.20315199
361.64	17.20538805
361.847	17.2132705
362.054	17.22482969
362.26	17.23563447
362.467	17.25689285
362.674	17.26665833
362.881	17.2874606
363.088	17.28863604
363.294	17.28482093
363.501	17.30244278
363.708	17.31186072
363.915	17.31233877
364.121	17.32380336
364.328	17.338528
364.535	17.35325955
364.741	17.36090753
364.948	17.36484303
365.155	17.38311959
365.361	17.38858296
365.568	17.38426666
365.775	17.39762537
365.981	17.42223399
366.188	17.42893455
366.395	17.45445422
366.601	17.46589639
366.808	17.48416206
367.014	17.48875831
367.221	17.48782793
367.427	17.49170117
367.634	17.51150756
367.84	17.52317264
368.047	17.53703296
368.254	17.54290622
368.46	17.54399318
368.667	17.5459106
368.873	17.55604854
369.079	17.56611414
369.286	17.58135014
369.492	17.58707009
369.699	17.61277776
369.905	17.63499227
370.112	17.65429486
370.318	17.65898254
370.524	17.68411605
370.731	17.67966182
370.937	17.68826592
371.144	17.69043989
371.35	17.7021594
371.556	17.72120812
371.763	17.73242799
371.969	17.73995919
372.175	17.75057348
372.381	17.75664137
372.588	17.76390721
372.794	17.77905046
373	17.78692187
373.206	17.80461622
373.413	17.82152979
373.619	17.82493941
373.825	17.83874342
374.031	17.85450415
374.238	17.86887812
374.444	17.86146841
374.65	17.86824506
374.856	17.86901663
375.062	17.89942808
375.268	17.91374321
375.475	17.92137066
375.681	17.93222809
375.887	17.94884901
376.093	17.97349421
376.299	17.9723193
376.505	17.99024449
376.711	18.01952477
376.917	18.04268478
377.123	18.04471281
377.329	18.06465372
377.535	18.07233297
377.741	18.08125382
377.947	18.0964233
378.153	18.10099102
378.359	18.10127475
378.565	18.11212518
378.771	18.13940422
378.977	18.16287139
379.183	18.17436338
379.389	18.17838378
379.595	18.18197176
379.801	18.1961676
380.007	18.21397326
380.213	18.2158401
380.418	18.21923796
380.624	18.25547137
380.83	18.26326435
381.036	18.25187366
381.242	18.24519371
381.448	18.27205136
381.653	18.28099095
381.859	18.29471273
382.065	18.2985121
382.271	18.31688614
382.476	18.3286978
382.682	18.33006135
382.888	18.34084362
383.094	18.33744438
383.299	18.33932475
383.505	18.34320063
383.711	18.33835603
383.916	18.35224872
384.122	18.36238221
384.328	18.36284694
384.533	18.37220277
384.739	18.3862583
384.945	18.38245085
385.15	18.37889918
385.356	18.3927999
385.562	18.42114501
385.767	18.41394181
385.973	18.42219878
386.178	18.43035854
386.384	18.42480695
386.589	18.43330887
386.795	18.4439
387	18.45644807
387.206	18.45679227
387.411	18.46106521
387.617	18.47537665
387.822	18.4913512
388.028	18.51552212
388.233	18.50945042
388.439	18.51051104
388.644	18.52277755
388.85	18.52967751
389.055	18.52747718
389.26	18.53150096
389.466	18.54370609
389.671	18.54724553
389.877	18.54065423
390.082	18.55197907
390.287	18.54782872
390.493	18.5616464
390.698	18.58237345
390.903	18.5855284
391.109	18.59085929
391.314	18.60385642
391.519	18.61047273
391.724	18.62835695
391.93	18.63263718
392.135	18.63266917
392.34	18.63681051
392.545	18.65424952
392.751	18.66947362
392.956	18.66823215
393.161	18.66514122
393.366	18.67805224
393.571	18.68729283
393.776	18.70255326
393.982	18.71989512
394.187	18.71679489
394.392	18.7146647
394.597	18.71291407
394.802	18.71051674
395.007	18.72055275
395.212	18.72081619
395.417	18.73098402
395.622	18.739083
395.827	18.74636127
396.032	18.75283972
396.237	18.75000565
396.442	18.75867134
396.647	18.74525264
396.852	18.75809314
397.057	18.76156131
397.262	18.76998822
397.467	18.77955216
397.672	18.78984404
397.877	18.80024329
398.082	18.81882756
398.287	18.82064029
398.492	18.8261843
398.697	18.84063401
398.902	18.85287423
399.107	18.85884267
399.311	18.86584417
399.516	18.87533188
399.721	18.88273967
399.926	18.88156621
400.131	18.88732713
400.336	18.89776025
400.54	18.91306325
400.745	18.92218348
400.95	18.93834819
401.155	18.94675608
401.359	18.95320145
401.564	18.95521204
401.769	18.96726059
401.974	18.97182448
402.178	18.96932443
402.383	18.96319555
402.588	18.96614352
402.792	18.97612793
402.997	18.98365195
403.202	18.99750144
403.406	19.00121201
403.611	18.992908
403.815	19.00360034
404.02	19.01255626
404.225	19.0257569
404.429	19.04305764
404.634	19.03548662
404.838	19.04281757
405.043	19.04659881
405.247	19.0483046
405.452	19.04378235
405.656	19.05186271
405.861	19.06446082
406.065	19.06870446
406.27	19.08233783
406.474	19.09387607
406.679	19.08481904
406.883	19.09174841
407.088	19.11306833
407.292	19.11172472
407.497	19.11577656
407.701	19.12508514
407.905	19.14318935
408.11	19.14126094
408.314	19.14375615
408.518	19.14131411
408.723	19.12809993
408.927	19.14288611
409.131	19.15041665
409.336	19.15570795
409.54	19.16992044
409.744	19.17387971
409.949	19.17903164
410.153	19.18065977
410.357	19.18148826
410.561	19.17584411
410.766	19.17823227
410.97	19.19129914
411.174	19.19780337
411.378	19.1934002
411.582	19.20759808
411.787	19.21590922
411.991	19.22060645
412.195	19.2254676
412.399	19.23313416
412.603	19.24521194
412.807	19.25433968
413.011	19.27030026
413.215	19.28021448
413.419	19.28054228
413.624	19.28404962
413.828	19.29216732
414.032	19.30335478
414.236	19.31077168
414.44	19.31633372
414.644	19.32716029
414.848	19.33442397
415.052	19.34160634
415.256	19.35873296
415.46	19.36033324
415.664	19.36325623
415.868	19.36582898
416.072	19.37159719
416.275	19.3695874
416.479	19.38142173
416.683	19.39177946
416.887	19.38777756
417.091	19.38765772
417.295	19.39328234
417.499	19.39635378
417.703	19.40406841
417.906	19.4109426
418.11	19.41030708
418.314	19.41678946
418.518	19.40982577
418.722	19.4240239
418.925	19.42872723
419.129	19.42629829
419.333	19.44171395
419.537	19.4362409
419.74	19.4409953
419.944	19.45068941
420.148	19.45854976
420.352	19.45347725
420.555	19.45665805
420.759	19.44085991
420.963	19.44082288
421.166	19.44259296
421.37	19.45578685
421.573	19.4606178
421.777	19.46272367
421.981	19.4619255
422.184	19.46037138
422.388	19.47713558
422.591	19.47559101
422.795	19.4892299
422.999	19.49781631
423.202	19.50911272
423.406	19.52892131
423.609	19.53332089
423.813	19.54822785
424.016	19.55924613
424.22	19.57310007
424.423	19.58003606
424.627	19.59453956
424.83	19.61197275
425.033	19.63517823
425.237	19.64969055
425.44	19.66367889
425.644	19.67138521
425.847	19.67404437
426.05	19.67755878
426.254	19.69172604
426.457	19.70960478
426.66	19.70263186
426.864	19.71546245
427.067	19.72638351
427.27	19.72059541
427.474	19.72438821
427.677	19.71514367
427.88	19.71583065
428.084	19.72318195
428.287	19.72303903
428.49	19.71849779
428.693	19.72486645
428.896	19.72782977
429.1	19.73585781
429.303	19.73139598
429.506	19.73607143
429.709	19.74216167
429.912	19.74580117
430.116	19.7523141
430.319	19.76295921
430.522	19.76490845
430.725	19.77048088
430.928	19.78347048
431.131	19.78385934
431.334	19.78316103
431.537	19.79049401
431.74	19.79518292
431.943	19.81470572
432.146	19.82450259
432.349	19.82880538
432.552	19.84381524
432.755	19.85400869
432.958	19.85903122
433.161	19.86221731
433.364	19.8676822
433.567	19.87997485
433.77	19.88249774
433.973	19.89043058
434.176	19.89721136
434.379	19.90935431
434.582	19.91447911
434.785	19.91630214
434.988	19.9173594
435.19	19.91931199
435.393	19.9130919
435.596	19.91564272
435.799	19.93019341
436.002	19.93686372
436.205	19.94654015
436.407	19.94548706
436.61	19.94858446
436.813	19.95038187
437.016	19.94719542
437.218	19.95158039
437.421	19.96072591
437.624	19.96442474
437.827	19.97089734
438.029	19.97194985
438.232	19.96330922
438.435	19.97116447
438.637	19.97585334
438.84	19.97968682
439.043	19.98865084
439.245	19.99703365
439.448	19.99638929
439.65	20.01708662
439.853	20.02772397
440.056	20.03145066
440.258	20.03633829
440.461	20.02631319
440.663	20.0352807
440.866	20.04598738
441.068	20.05967819
441.271	20.07982916
441.473	20.08406909
441.676	20.08564886
441.878	20.09632387
442.081	20.10806266
442.283	20.11731742
442.486	20.13844684
442.688	20.14755624
442.89	20.15180723
443.093	20.1612515
443.295	20.16483519
443.498	20.16974147
443.7	20.17310258
443.902	20.17565677
444.105	20.1771953
444.307	20.18292436
444.509	20.18388154
444.712	20.19662635
444.914	20.19728506
445.116	20.18908086
445.319	20.18278707
445.521	20.18653235
445.723	20.1890965
445.925	20.19896078
446.128	20.20214557
446.33	20.20240123
446.532	20.204666
446.734	20.19341364
446.936	20.18408545
447.139	20.18044568
447.341	20.17752219
447.543	20.1753445
447.745	20.17306642
447.947	20.18702282
448.149	20.18355951
448.351	20.19144057
448.553	20.17731575
448.755	20.1914636
448.958	20.20247955
449.16	20.20791291
449.362	20.21403044
449.564	20.21557446
449.766	20.20948809
449.968	20.21648259
450.17	20.21594654
450.372	20.21154625
450.574	20.21944578
450.776	20.21547301
450.978	20.22465213
451.179	20.23432546
451.381	20.23863379
451.583	20.24552117
451.785	20.25199319
451.987	20.2563455
452.189	20.25698316
452.391	20.26754292
452.593	20.26310247
452.795	20.27720258
452.996	20.2694091
453.198	20.26347099
453.4	20.2570971
453.602	20.25109592
453.804	20.24531226
454.005	20.24564635
454.207	20.24336585
454.409	20.24065796
454.611	20.24776113
454.812	20.2420875
455.014	20.25288109
455.216	20.25396484
455.417	20.25719873
455.619	20.25390425
455.821	20.25344221
456.022	20.25315478
456.224	20.25389336
456.426	20.2544971
456.627	20.25207063
456.829	20.25090121
457.031	20.25728563
457.232	20.25993953
457.434	20.2623917
457.635	20.26943911
457.837	20.27773099
458.038	20.29107046
458.24	20.29875332
458.441	20.30096047
458.643	20.30051702
458.844	20.30075939
459.046	20.29781207
459.247	20.29894982
459.449	20.29961151
459.65	20.29020574
459.852	20.29880631
460.053	20.29794074
460.254	20.28555923
460.456	20.28755433
460.657	20.29492157
460.859	20.29883077
461.06	20.31021642
461.261	20.30614283
461.463	20.30350402
461.664	20.30033416
461.865	20.30417523
462.066	20.30323416
462.268	20.30705593
462.469	20.30286051
462.67	20.30723579
462.872	20.3111247
463.073	20.30077591
463.274	20.30875217
463.475	20.30106709
463.676	20.30207731
463.878	20.30853452
464.079	20.30004489
464.28	20.29351222
464.481	20.3137056
464.682	20.3100505
464.883	20.29614019
465.085	20.30023499
465.286	20.28608348
465.487	20.28296819
465.688	20.27929884
465.889	20.28936423
466.09	20.28749887
466.291	20.28987431
466.492	20.28364087
466.693	20.28196098
466.894	20.28382774
467.095	20.28910093
467.296	20.2924414
467.497	20.29004028
467.698	20.29093679
467.899	20.29012792
468.1	20.29262481
468.301	20.29803249
468.502	20.30433453
468.703	20.299744
468.903	20.30715582
469.104	20.31476113
469.305	20.31452766
469.506	20.32195433
469.707	20.32490976
469.908	20.33071305
470.109	20.32150698
470.309	20.31787336
470.51	20.32320967
470.711	20.32434045
470.912	20.32820961
471.112	20.32598132
471.313	20.32599147
471.514	20.33939852
471.715	20.34418372
471.915	20.35221062
472.116	20.35928982
472.317	20.35888396
472.517	20.35716639
472.718	20.35950004
472.919	20.36488391
473.119	20.36376487
473.32	20.36356459
473.521	20.3654217
473.721	20.36424038
473.922	20.37039872
474.122	20.37110219
474.323	20.37959749
474.523	20.3805099
474.724	20.38525432
474.925	20.39167674
475.125	20.39372401
475.326	20.39133673
475.526	20.38959501
475.727	20.38390867
475.927	20.38180586
476.127	20.38594019
476.328	20.3815262
476.528	20.38448784
476.729	20.39523338
476.929	20.40275233
477.13	20.39878448
477.33	20.39339822
477.53	20.39131752
477.731	20.38879455
477.931	20.38945407
478.131	20.38755303
478.332	20.38862573
478.532	20.3805668
478.732	20.38380222
478.933	20.37830509
479.133	20.37359746
479.333	20.37696044
479.533	20.38538746
479.734	20.38804148
479.934	20.38558939
480.134	20.38889531
480.334	20.38247372
480.534	20.38549178
480.735	20.38072626
480.935	20.37598382
481.135	20.36667311
481.335	20.37066666
481.535	20.37887431
481.735	20.38747171
481.935	20.38936762
482.136	20.39900686
482.336	20.39711518
482.536	20.39327593
482.736	20.39852782
482.936	20.39662556
483.136	20.39855972
483.336	20.39657992
483.536	20.3872603
483.736	20.38194409
483.936	20.38265106
484.136	20.38510467
484.336	20.38392639
484.536	20.38562617
484.736	20.38004418
484.936	20.38580107
485.135	20.38361359
485.335	20.3884398
485.535	20.38526756
485.735	20.38136497
485.935	20.38234785
486.135	20.3834703
486.335	20.37162819
486.534	20.37357663
486.734	20.3794506
486.934	20.38490222
487.134	20.39622658
487.334	20.39226439
487.533	20.39923809
487.733	20.40747763
487.933	20.40888712
488.133	20.41341904
488.332	20.41610764
488.532	20.4150666
488.732	20.41954825
488.931	20.42336774
489.131	20.42246877
489.331	20.43157387
489.53	20.42745772
489.73	20.42857537
489.93	20.43457201
490.129	20.43103624
490.329	20.42901904
490.528	20.43311851
490.728	20.43488894
490.928	20.43373391
491.127	20.42811958
491.327	20.42134804
491.526	20.42139055
491.726	20.41706511
491.925	20.40729807
492.125	20.40417965
492.324	20.39511357
492.524	20.39488105
492.723	20.39489487
492.922	20.39090588
493.122	20.396817
493.321	20.39224321
493.521	20.38175853
493.72	20.38266369
493.919	20.38118787
494.119	20.37493085
494.318	20.37126214
494.517	20.36664716
494.717	20.36845735
494.916	20.35337697
495.115	20.34454886
495.315	20.33840315
495.514	20.33004579
495.713	20.32606071
495.912	20.32128426
496.112	20.32542717
496.311	20.32185513
496.51	20.32167352
496.709	20.30699711
496.908	20.30138049
497.108	20.29567268
497.307	20.28162215
497.506	20.2764506
497.705	20.27379801
497.904	20.27050308
498.103	20.26370529
498.302	20.26060635
498.501	20.25448761
498.701	20.25074712
498.9	20.24475532
499.099	20.25077844
499.298	20.25296277
499.497	20.24845988
499.696	20.24687041
499.895	20.24808067
500.094	20.25080448
500.293	20.24529477
500.492	20.24181427
500.691	20.23792097
500.89	20.24052172
501.088	20.23200408
501.287	20.23110769
501.486	20.23817875
501.685	20.23733242
501.884	20.23442395
502.083	20.23019394
502.282	20.22894039
502.481	20.22558845
502.679	20.22436309
502.878	20.22193026
503.077	20.21816387
503.276	20.21189579
503.475	20.20977182
503.673	20.21284788
503.872	20.21494844
504.071	20.20898919
504.27	20.19816796
504.468	20.19780311
504.667	20.1947259
504.866	20.18957596
505.064	20.18285406
505.263	20.17904043
505.462	20.17233118
505.66	20.16445413
505.859	20.16564617
506.058	20.16030591
506.256	20.15298385
506.455	20.15404049
506.653	20.1478197
506.852	20.13758885
507.05	20.12854991
507.249	20.12226828
507.448	20.11283355
507.646	20.10283752
507.845	20.0935793
508.043	20.08032513
508.242	20.07248988
508.44	20.0649473
508.638	20.04989125
508.837	20.04158454
509.035	20.03435911
509.234	20.0311656
509.432	20.02894117
509.631	20.01820097
509.829	20.01126223
510.027	20.00076217
510.226	19.99181808
510.424	19.98299036
510.622	19.97271023
510.821	19.96797422
511.019	19.96099322
511.217	19.95487739
511.415	19.9463001
511.614	19.94912625
511.812	19.9420392
512.01	19.93678873
512.208	19.93255936
512.407	19.93182035
512.605	19.93065678
512.803	19.93091144
513.001	19.92333172
513.199	19.91576918
513.398	19.9045005
513.596	19.89671828
513.794	19.90056721
513.992	19.88968786
514.19	19.88437837
514.388	19.88458164
514.586	19.88558458
514.784	19.87601286
514.982	19.86898739
515.18	19.8709092
515.378	19.86873366
515.576	19.8715491
515.774	19.86860284
515.972	19.87034908
516.17	19.86840919
516.368	19.86781623
516.566	19.86032714
516.764	19.85625319
516.962	19.85346842
517.16	19.8597483
517.358	19.85871718
517.556	19.86066901
517.754	19.86365311
517.952	19.86021176
518.149	19.85966804
518.347	19.8583926
518.545	19.85087269
518.743	19.84506899
518.941	19.84814201
519.138	19.84162919
519.336	19.83245825
519.534	19.83138813
519.732	19.82812389
519.929	19.81995623
520.127	19.81419648
520.325	19.80376715
520.523	19.79181277
520.72	19.79231993
520.918	19.7953372
521.116	19.79167049
521.313	19.7810541
521.511	19.78055281
521.709	19.77815076
521.906	19.77161652
522.104	19.76162754
522.301	19.7639259
522.499	19.75658665
522.696	19.7548684
522.894	19.75188989
523.092	19.74605212
523.289	19.7477407
523.487	19.74930468
523.684	19.73762559
523.882	19.73001842
524.079	19.72850633
524.276	19.72297734
524.474	19.71852978
524.671	19.7195796
524.869	19.70824864
525.066	19.69339654
525.264	19.68754117
525.461	19.68146054
525.658	19.67191348
525.856	19.66524834
526.053	19.65553579
526.25	19.64944596
526.448	19.6358394
526.645	19.63107712
526.842	19.62522893
527.039	19.61397196
527.237	19.60643929
527.434	19.60091243
527.631	19.5923052
527.828	19.59060975
528.026	19.58095798
528.223	19.56821764
528.42	19.5662415
528.617	19.56400024
528.814	19.55441477
529.012	19.55345672
529.209	19.54477405
529.406	19.5310224
529.603	19.52630097
529.8	19.51900171
529.997	19.51382094
530.194	19.51240338
530.391	19.51399569
530.588	19.51107878
530.785	19.50365724
530.982	19.49939086
531.179	19.49325489
531.376	19.48613419
531.573	19.47867974
531.77	19.47362704
531.967	19.46459507
532.164	19.45969871
532.361	19.45881284
532.558	19.44605783
532.755	19.43618919
532.952	19.4319708
533.149	19.41909957
533.346	19.41943201
533.543	19.4155833
533.739	19.40901452
533.936	19.40486842
534.133	19.40175781
534.33	19.39177419
534.527	19.38088599
534.723	19.37910583
534.92	19.36692635
535.117	19.35508654
535.314	19.34553375
535.51	19.33145467
535.707	19.31925693
535.904	19.30410611
536.1	19.29961324
536.297	19.29247135
536.494	19.2810475
536.69	19.26947856
536.887	19.26515429
537.084	19.25481999
537.28	19.24383022
537.477	19.22847308
537.674	19.21322825
537.87	19.20061604
538.067	19.1907494
538.263	19.17818452
538.46	19.17236258
538.656	19.15523245
538.853	19.14153981
539.049	19.14187299
539.246	19.13500602
539.442	19.13578107
539.639	19.12672262
539.835	19.12091374
540.032	19.11928197
540.228	19.10894347
540.424	19.09985583
540.621	19.09437565
540.817	19.09071532
541.014	19.08041319
541.21	19.07419457
541.406	19.07667604
541.603	19.07621662
541.799	19.07519902
541.995	19.07358366
542.191	19.06548072
542.388	19.05795627
542.584	19.05286808
542.78	19.0471835
542.976	19.03925791
543.173	19.02997385
543.369	19.02036551
543.565	19.00335464
543.761	19.00099755
543.957	18.99579479
544.154	18.98733891
544.35	18.98222184
544.546	18.9758984
544.742	18.96703166
544.938	18.95988072
545.134	18.95503558
545.33	18.95006357
545.526	18.93334865
545.722	18.92627245
545.919	18.9241832
546.115	18.90943841
546.311	18.9003166
546.507	18.89358745
546.703	18.88339353
546.899	18.87840967
547.095	18.87009915
547.29	18.86377262
547.486	18.85512602
547.682	18.857312
547.878	18.85158313
548.074	18.8413914
548.27	18.83420462
548.466	18.82628559
548.662	18.81893394
548.858	18.81338614
549.053	18.80142852
549.249	18.78715923
549.445	18.77504871
549.641	18.77267538
549.837	18.76199941
550.032	18.75006301
550.228	18.7492699
550.424	18.73923358
550.62	18.73104272
550.815	18.71381983
551.011	18.70791459
551.207	18.6974
551.402	18.68370698
551.598	18.67626885
551.794	18.66426889
551.989	18.65785633
552.185	18.6487111
552.381	18.64307467
552.576	18.62932606
552.772	18.60873041
552.967	18.60138004
553.163	18.59906703
553.359	18.5988471
553.554	18.59099974
553.75	18.58245857
553.945	18.57524852
554.141	18.56878161
554.336	18.55998825
554.532	18.55049532
554.727	18.53771018
554.922	18.53499047
555.118	18.52575943
555.313	18.51418727
555.509	18.50253884
555.704	18.4931456
555.899	18.48409617
556.095	18.47276891
556.29	18.46622298
556.486	18.45563986
556.681	18.44943988
556.876	18.45272953
557.071	18.44070977
557.267	18.42874767
557.462	18.41633863
557.657	18.40972173
557.853	18.40324665
558.048	18.38535515
558.243	18.38218558
558.438	18.37287475
558.633	18.36675099
558.829	18.36322884
559.024	18.35725865
559.219	18.35352019
559.414	18.34955272
559.609	18.33996191
559.804	18.33556106
559.999	18.32904773
560.194	18.31663558
560.39	18.3118576
560.585	18.31041993
560.78	18.3061696
560.975	18.29311655
561.17	18.28191495
561.365	18.27665277
561.56	18.27079465
561.755	18.26045882
561.95	18.25173551
562.145	18.25430519
562.34	18.23574246
562.535	18.22959747
562.729	18.22690666
562.924	18.22143296
563.119	18.21319423
563.314	18.20164183
563.509	18.19179242
563.704	18.18918613
563.899	18.18587128
564.093	18.1760969
564.288	18.17551259
564.483	18.16406946
564.678	18.14629019
564.873	18.1424633
565.067	18.14034472
565.262	18.13626761
565.457	18.12871165
565.652	18.11927239
565.846	18.1104746
566.041	18.1082208
566.236	18.09733869
566.43	18.09304256
566.625	18.08723711
566.82	18.07967143
567.014	18.06465428
567.209	18.05587225
567.404	18.05091627
567.598	18.03860781
567.793	18.02815313
567.987	18.01334827
568.182	18.00932624
568.376	17.99871612
568.571	17.9875119
568.765	17.98233864
568.96	17.97382479
569.154	17.96609643
569.349	17.95422055
569.543	17.94648481
569.738	17.94093618
569.932	17.94011758
570.127	17.92375384
570.321	17.91438349
570.515	17.91146701
570.71	17.89839473
570.904	17.89276215
571.098	17.88636693
571.293	17.87183971
571.487	17.85611252
571.681	17.84968607
571.876	17.83923585
572.07	17.83535813
572.264	17.82474845
572.458	17.81508967
572.653	17.81559284
572.847	17.81748301
573.041	17.80748909
573.235	17.79999922
573.43	17.79005925
573.624	17.77813334
573.818	17.76578238
574.012	17.74797855
574.206	17.73951311
574.4	17.73531664
574.594	17.72300686
574.788	17.72034903
574.983	17.70995477
575.177	17.70728173
575.371	17.70723988
575.565	17.70482183
575.759	17.70522429
575.953	17.69935489
576.147	17.6887944
576.341	17.68162847
576.535	17.68167241
576.729	17.66569901
576.923	17.64639538
577.117	17.63768293
577.31	17.63018814
577.504	17.62821608
577.698	17.62251896
577.892	17.61978507
578.086	17.61929042
578.28	17.60473087
578.474	17.59636351
578.668	17.58968293
578.861	17.58145394
579.055	17.57486444
579.249	17.56209609
579.443	17.55101544
579.636	17.54462532
579.83	17.52963463
580.024	17.53031967
580.218	17.52690545
580.411	17.51623572
580.605	17.49709965
580.799	17.49487059
580.992	17.48829681
581.186	17.48940971
581.38	17.47906894
581.573	17.46957698
581.767	17.46427342
581.961	17.4540413
582.154	17.44998973
582.348	17.44870693
582.541	17.44371211
582.735	17.44082303
582.928	17.43085488
583.122	17.42293287
583.315	17.41425805
583.509	17.4163917
583.702	17.40790598
583.896	17.40779209
584.089	17.40317127
584.283	17.3924941
584.476	17.39121402
584.67	17.39440735
584.863	17.3822627
585.056	17.37980066
585.25	17.3611477
585.443	17.35450532
585.636	17.3485295
585.83	17.34222362
586.023	17.34146961
586.216	17.32908224
586.41	17.324437
586.603	17.31266743
586.796	17.30153583
586.989	17.29284481
587.183	17.27654224
587.376	17.2669145
587.569	17.24588347
587.762	17.23948117
587.955	17.22674266
588.149	17.2057829
588.342	17.19168374
588.535	17.18050551
588.728	17.17389278
588.921	17.1703327
589.114	17.16049665
589.307	17.15796494
589.5	17.14731673
589.693	17.14978174
589.886	17.14252916
590.08	17.12918037
590.273	17.12427865
590.466	17.11052551
590.659	17.10677148
590.852	17.09843196
591.044	17.09356195
591.237	17.09903853
591.43	17.0981213
591.623	17.09671713
591.816	17.09335019
592.009	17.0814502
592.202	17.08218361
592.395	17.08267505
592.588	17.07450416
592.781	17.0599904
592.973	17.04976056
593.166	17.0459653
593.359	17.0351848
593.552	17.02706942
593.745	17.00535004
593.937	16.98380459
594.13	16.97657565
594.323	16.97199793
594.515	16.97570148
594.708	16.9602516
594.901	16.95516728
595.094	16.9376568
595.286	16.92609998
595.479	16.91567763
595.672	16.90334984
595.864	16.88209069
596.057	16.88473868
596.249	16.87479591
596.442	16.8599084
596.635	16.84955041
596.827	16.84684183
597.02	16.83507039
597.212	16.81992685
597.405	16.80716324
597.597	16.80072557
597.79	16.79391812
597.982	16.79296357
598.175	16.78033724
598.367	16.76582302
598.559	16.7493956
598.752	16.74713259
598.944	16.73696134
599.137	16.73459351
599.329	16.72368674
599.521	16.71588162
599.714	16.70727177
599.906	16.70456639
600.098	16.69525837
600.291	16.67954435
600.483	16.67852192
600.675	16.67737588
600.868	16.67186598
601.06	16.66471669
601.252	16.65814443
601.444	16.64968817
601.637	16.64507172
601.829	16.63272079
602.021	16.62829831
602.213	16.62000206
602.405	16.61053347
602.597	16.60542253
602.789	16.58793829
602.982	16.57446186
603.174	16.57233347
603.366	16.56197132
603.558	16.55394312
603.75	16.5535878
603.942	16.54453726
604.134	16.5303822
604.326	16.52590283
604.518	16.51131356
604.71	16.50309333
604.902	16.48938858
605.094	16.48864518
605.286	16.48334216
605.478	16.47510193
605.67	16.46295776
605.862	16.45548813
606.054	16.44882845
606.246	16.44742471
606.437	16.43873451
606.629	16.43021778
606.821	16.43422757
607.013	16.4306125
607.205	16.41048677
607.397	16.40457778
607.588	16.40912814
607.78	16.39080071
607.972	16.38427654
608.164	16.37578948
608.355	16.37672311
608.547	16.37285462
608.739	16.35154915
608.93	16.34238035
609.122	16.3330617
609.314	16.31768576
609.505	16.3134559
609.697	16.31180927
609.889	16.30485686
610.08	16.29404409
610.272	16.27345559
610.463	16.27114099
610.655	16.26193929
610.847	16.25496046
611.038	16.24415262
611.23	16.23964156
611.421	16.22683162
611.613	16.20901092
611.804	16.20420368
611.996	16.19756218
612.187	16.19370445
612.379	16.18125618
612.57	16.17102537
612.761	16.17104392
612.953	16.1661206
613.144	16.14338233
613.336	16.13349959
613.527	16.13243673
613.718	16.12377066
613.91	16.12942865
614.101	16.13026254
614.292	16.13240579
614.483	16.13098857
614.675	16.11630274
614.866	16.1009061
615.057	16.09237837
615.248	16.08716748
615.44	16.08430744
615.631	16.07591959
615.822	16.06676199
616.013	16.05514465
616.204	16.04455456
616.396	16.03656008
616.587	16.01885077
616.778	16.00537151
616.969	16.00019708
617.16	16.00529696
617.351	16.00218005
617.542	15.9876742
617.733	15.98148084
617.924	15.96289712
618.115	15.95178752
618.306	15.94119374
618.497	15.92356363
618.688	15.92445307
618.879	15.92600705
619.07	15.92175474
619.261	15.92118974
619.452	15.92051022
619.643	15.91510585
619.834	15.91104915
620.025	15.90447719
620.216	15.89585973
620.407	15.89193077
620.597	15.89816698
620.788	15.89594763
620.979	15.88480042
621.17	15.87556894
621.361	15.87175432
621.551	15.86174413
621.742	15.84334258
621.933	15.8458231
622.124	15.82799361
622.314	15.81961168
622.505	15.8169874
622.696	15.81257083
622.886	15.79655541
623.077	15.78071998
623.268	15.76540468
623.458	15.76124175
623.649	15.75158639
623.84	15.7436416
624.03	15.73827473
624.221	15.73469637
624.411	15.71821259
624.602	15.71447069
624.792	15.70715502
624.983	15.70574312
625.173	15.69575584
625.364	15.69149044
625.554	15.68963732
625.745	15.68703889
625.935	15.67533891
626.126	15.6709123
626.316	15.65938734
626.507	15.64804018
626.697	15.63507657
626.887	15.63525043
627.078	15.63671044
627.268	15.62977695
627.458	15.6152681
627.649	15.60433477
627.839	15.6043946
628.029	15.60136758
628.22	15.58932193
628.41	15.58465934
628.6	15.5761266
628.79	15.56768456
628.981	15.56030784
629.171	15.55927562
629.361	15.55724944
629.551	15.548105
629.741	15.55095076
629.932	15.54245143
630.122	15.53944978
630.312	15.54307406
630.502	15.53342838
630.692	15.52899072
630.882	15.51510309
631.072	15.50767367
631.262	15.49836271
631.452	15.48295819
631.642	15.47248975
631.832	15.4647093
632.022	15.45029177
632.212	15.4441098
632.402	15.43344978
632.592	15.42438553
632.782	15.42316516
632.972	15.4085779
633.162	15.39311993
633.352	15.37088845
633.542	15.35987207
633.732	15.3450301
633.922	15.32996851
634.111	15.3231462
634.301	15.31076273
634.491	15.31083426
634.681	15.30554452
634.871	15.30041776
635.06	15.30180036
635.25	15.29268762
635.44	15.28488811
635.63	15.28863303
635.819	15.28434159
636.009	15.28090064
636.199	15.2767097
636.388	15.2760649
636.578	15.26690423
636.768	15.2558661
636.957	15.24734876
637.147	15.25178458
637.337	15.26001961
637.526	15.25736718
637.716	15.25897713
637.905	15.25967697
638.095	15.24932903
638.284	15.24724436
638.474	15.2419129
638.663	15.23817388
638.853	15.23597521
639.042	15.23523065
639.232	15.23055404
639.421	15.22904073
639.611	15.21861642
639.8	15.2033329
639.99	15.19044866
640.179	15.19271125
640.368	15.1951364
640.558	15.19408429
640.747	15.19150352
640.936	15.18967259
641.126	15.17822585
641.315	15.16546674
641.504	15.15405032
641.694	15.14136179
641.883	15.13198296
642.072	15.12615413
642.261	15.11259467
642.451	15.10383311
642.64	15.08979948
642.829	15.08880012
643.018	15.07372916
643.207	15.07663238
643.397	15.06737348
643.586	15.05741565
643.775	15.05844247
643.964	15.0572581
644.153	15.05268708
644.342	15.04205008
644.531	15.03250209
644.72	15.03047907
644.909	15.02551708
645.098	15.02057937
645.287	15.01051717
645.476	15.01215268
645.665	15.01512188
645.854	15.00926178
646.043	15.00979563
646.232	15.00806507
646.421	15.00196218
646.61	14.99917611
646.799	14.98997316
646.988	14.99116768
647.177	14.98053218
647.365	14.99829308
647.554	15.00187238
647.743	14.99908732
647.932	14.9978811
648.121	14.98935827
648.309	14.98310755
648.498	14.99327452
648.687	14.98288842
648.876	14.98205294
649.064	14.96961066
649.253	14.96583714
649.442	14.96788126
649.63	14.95277576
649.819	14.94998904
650.008	14.93736386
650.196	14.93384741
650.385	14.93354491
650.574	14.93411817
650.762	14.92925566
650.951	14.91692564
651.139	14.91580546
651.328	14.88655016
651.516	14.87889071
651.705	14.86806489
651.893	14.86054315
652.082	14.84706803
652.27	14.84888879
652.459	14.83373559
652.647	14.83318749
652.836	14.82244528
653.024	14.82251697
653.213	14.81666985
653.401	14.81053792
653.589	14.80989145
653.778	14.80350814
653.966	14.81378769
654.154	14.81112048
654.343	14.80550195
654.531	14.8019412
654.719	14.78447454
654.908	14.77926813
655.096	14.76608499
655.284	14.75569731
655.472	14.74516781
655.661	14.73731761
655.849	14.74057854
656.037	14.73329811
656.225	14.72228713
656.413	14.71214868
656.601	14.7042624
656.79	14.70194873
656.978	14.7030514
657.166	14.69189826
657.354	14.67792229
657.542	14.66987176
657.73	14.67186209
657.918	14.65819003
658.106	14.6451018
658.294	14.63699967
658.482	14.62553536
658.67	14.62838903
658.858	14.60780835
659.046	14.60937882
659.234	14.6026562
659.422	14.60033173
659.61	14.60006531
659.798	14.5920402
659.986	14.59422375
660.173	14.58035582
660.361	14.56329635
660.549	14.55645317
660.737	14.55318009
660.925	14.54441244
661.113	14.55364847
661.3	14.54469015
661.488	14.53576923
661.676	14.52908488
661.864	14.5158821
662.051	14.51353766
662.239	14.50809875
662.427	14.50292024
662.614	14.4973078
662.802	14.51038352
662.99	14.501999
663.177	14.51091038
663.365	14.4970619
663.553	14.49994919
663.74	14.48796544
663.928	14.48469145
664.115	14.47984198
664.303	14.47974172
664.49	14.47706469
664.678	14.48103063
664.866	14.47811957
665.053	14.46227671
665.24	14.4635778
665.428	14.46352931
665.615	14.44738897
665.803	14.4496922
665.99	14.44471704
666.178	14.43712452
666.365	14.43010205
666.552	14.42578063
666.74	14.41441842
666.927	14.41408706
667.114	14.40516217
667.302	14.40641084
667.489	14.39951553
667.676	14.39775103
667.864	14.38658241
668.051	14.3842058
668.238	14.37309129
668.425	14.36962125
668.613	14.35392821
668.8	14.34892649
668.987	14.34782785
669.174	14.35132804
669.361	14.35213686
669.548	14.35224675
669.736	14.35539078
669.923	14.35486724
670.11	14.35427258
670.297	14.35170823
670.484	14.33815763
670.671	14.33469845
670.858	14.33152233
671.045	14.33007896
671.232	14.32988425
671.419	14.3089551
671.606	14.29865023
671.793	14.29203723
671.98	14.28432333
672.167	14.27965018
672.354	14.26970772
672.541	14.25204097
672.728	14.24145238
672.915	14.23597277
673.101	14.23487903
673.288	14.21969787
673.475	14.22088808
673.662	14.21051223
673.849	14.19474726
674.035	14.18772224
674.222	14.17592635
674.409	14.1790479
674.596	14.17415308
674.783	14.16565344
674.969	14.15375032
675.156	14.14822251
675.343	14.15945465
675.529	14.1568842
675.716	14.1513411
675.903	14.15319405
676.089	14.16635916
676.276	14.15446841
676.462	14.15328384
676.649	14.1515538
676.836	14.1361992
677.022	14.11964868
677.209	14.10920868
677.395	14.11116182
677.582	14.09422088
677.768	14.09665549
677.955	14.0959223
678.141	14.10197396
678.328	14.09661307
678.514	14.09753008
678.701	14.09088419
678.887	14.09020403
679.073	14.08900685
679.26	14.07691716
679.446	14.07348943
679.632	14.07883979
679.819	14.07949455
680.005	14.07562922
680.191	14.08392045
680.378	14.0818487
680.564	14.089086
680.75	14.09781059
680.936	14.09130232
681.123	14.10531229
681.309	14.09958858
681.495	14.10395713
681.681	14.09742708
681.867	14.08600711
682.054	14.0789977
682.24	14.07468537
682.426	14.07006248
682.612	14.06037479
682.798	14.06699429
682.984	14.05784795
683.17	14.0609665
683.356	14.05882177
683.542	14.04913408
683.728	14.03854641
683.914	14.03320865
684.1	14.02184122
684.286	14.01869539
684.472	14.01843707
684.658	14.02350485
684.844	14.02231575
685.03	14.01729424
685.216	14.00284871
685.402	14.01292373
685.588	14.03166398
685.774	14.03312253
685.96	14.04340981
686.145	14.05411809
686.331	14.05023954
686.517	14.05740217
686.703	14.04372772
686.889	14.05338224
687.074	14.02961253
687.26	14.03157964
687.446	14.02953043
687.631	14.01545004
687.817	14.0118665
688.003	14.0291332
688.189	14.01608646
688.374	14.00511693
688.56	14.0051979
688.745	14.00201593
688.931	14.00942498
689.117	14.01055101
689.302	14.00821311
689.488	13.99297429
689.673	13.98669401
689.859	13.97581796
690.044	13.94952432
690.23	13.95529257
690.415	13.96001302
690.601	13.96832763
690.786	13.95931464
690.972	13.96664828
691.157	13.96471749
691.343	13.96712536
691.528	13.98049168
691.713	13.97947407
691.899	13.969684
692.084	13.99220838
692.269	13.97679732
692.455	13.96709079
692.64	13.96520273
692.825	13.95384066
693.011	13.95966514
693.196	13.95744834
693.381	13.94901885
693.566	13.95783108
693.752	13.95732832
693.937	13.95396594
694.122	13.94222274
694.307	13.93366424
694.492	13.93568449
694.678	13.92773694
694.863	13.93169039
695.048	13.93715847
695.233	13.92378857
695.418	13.91699893
695.603	13.90793458
695.788	13.89813484
695.973	13.88325497
696.158	13.89823013
696.343	13.88690094
696.528	13.88478565
696.713	13.8724772
696.898	13.86529024
697.083	13.85317221
697.268	13.86402499
697.453	13.85597627
697.638	13.85298581
697.823	13.8702412
698.008	13.87115456
698.192	13.87382271
698.377	13.86941419
698.562	13.86752603
698.747	13.86023839
698.932	13.83742845
699.117	13.83869408
699.301	13.84810437
699.486	13.8502096
699.671	13.84465291
699.856	13.85011937
700.04	13.83949497
700.225	13.84457782
700.41	13.84701133
700.594	13.83876003
700.779	13.82436989
700.964	13.82574808
701.148	13.81448115
701.333	13.80091865
701.517	13.78789236
701.702	13.77484757
701.887	13.7679307
702.071	13.75974268
702.256	13.75266079
702.44	13.75631684
702.625	13.75823122
702.809	13.74911012
702.994	13.74924084
703.178	13.74170336
703.362	13.73216722
703.547	13.73020034
703.731	13.71401496
703.916	13.69951357
704.1	13.7100815
704.284	13.6973528
704.469	13.71014534
704.653	13.71038796
704.837	13.70725094
705.022	13.70244594
705.206	13.69561508
705.39	13.69985416
705.575	13.6945869
705.759	13.68230775
705.943	13.67575198
706.127	13.68566178
706.311	13.68453785
706.496	13.66019068
706.68	13.66933513
706.864	13.65521928
707.048	13.63458544
707.232	13.63709551
707.416	13.64226999
707.6	13.64264968
707.785	13.64908671
707.969	13.62404896
708.153	13.62273713
708.337	13.60764135
708.521	13.61153893
708.705	13.60860411
708.889	13.60788978
709.073	13.61007141
709.257	13.61271982
709.441	13.61316575
709.624	13.62193565
709.808	13.62989645
709.992	13.63082868
710.176	13.6162325
710.36	13.63288065
710.544	13.63411582
710.728	13.6477932
710.912	13.66502917
711.095	13.65738264
711.279	13.65666852
711.463	13.65986515
711.647	13.66124811
711.83	13.66511866
712.014	13.66771528
712.198	13.67024191
712.382	13.68101444
712.565	13.67669877
712.749	13.69228588
712.933	13.67749099
713.116	13.67660708
713.3	13.66904581
713.483	13.66573492
713.667	13.64731987
713.851	13.63834659
714.034	13.64628761
714.218	13.64631112
714.401	13.65240469
714.585	13.6441035
714.768	13.63851995
714.952	13.64338284
715.135	13.65141
715.319	13.66205251
715.502	13.65888095
715.686	13.66996676
715.869	13.68421552
716.052	13.67835304
716.236	13.660192
716.419	13.66713979
716.602	13.64654949
716.786	13.67058479
716.969	13.65899062
717.152	13.68281237
717.336	13.67786705
717.519	13.68084712
717.702	13.65684948
717.885	13.65043786
718.069	13.65192462
718.252	13.64842935
718.435	13.64351715
718.618	13.63821422
718.801	13.63859823
718.985	13.61967652
719.168	13.61121731
719.351	13.61005469
719.534	13.60507096
719.717	13.59290963
719.9	13.59263667
720.083	13.59300931
720.266	13.57454964
720.449	13.57409819
720.632	13.56210299
720.815	13.56193521
720.998	13.54932746
721.181	13.54060941
721.364	13.53488065
721.547	13.54461326
721.73	13.5267887
721.913	13.51381097
722.096	13.49020059
722.279	13.49363582
722.461	13.49355048
722.644	13.48689676
722.827	13.48686691
723.01	13.48249564
723.193	13.4823824
723.376	13.47088213
723.558	13.44119167
723.741	13.42896486
723.924	13.41351259
724.107	13.40597934
724.289	13.4104728
724.472	13.40872448
724.655	13.3891304
724.837	13.39083306
725.02	13.39044918
725.203	13.39488575
725.385	13.38582741
725.568	13.39655407
725.75	13.40479989
725.933	13.41692368
726.115	13.40472415
726.298	13.37443619
726.481	13.36954956
726.663	13.3590526
726.845	13.34753921
727.028	13.32661691
727.21	13.30684865
727.393	13.29810718
727.575	13.30314112
727.758	13.31446859
727.94	13.32200103
728.122	13.30322799
728.305	13.3041708
728.487	13.31479246
728.67	13.29149957
728.852	13.29849359
729.034	13.27917363
729.216	13.27147318
729.399	13.26719174
729.581	13.26574412
729.763	13.25025206
729.945	13.25161554
730.128	13.28040599
730.31	13.27088041
730.492	13.26898415
730.674	13.24956326
730.856	13.25703104
731.039	13.27154895
731.221	13.29089593
731.403	13.29058236
731.585	13.27712935
731.767	13.26197674
731.949	13.23929891
732.131	13.23204145
732.313	13.22807396
732.495	13.22406891
732.677	13.21095444
732.859	13.21920149
733.041	13.22288004
733.223	13.22056136
733.405	13.20852175
733.587	13.20300668
733.769	13.22469265
733.951	13.20396618
734.132	13.20764972
734.314	13.20418022
734.496	13.2077344
734.678	13.20135013
734.86	13.18344787
735.042	13.17901877
735.223	13.17208451
735.405	13.16887001
735.587	13.17665957
735.769	13.19476391
735.95	13.18159362
736.132	13.17239857
736.314	13.18207297
736.495	13.16347031
736.677	13.16428097
736.859	13.15720191
737.04	13.15588606
737.222	13.1490957
737.403	13.15802073
737.585	13.12409479
737.767	13.12504671
737.948	13.11229615
738.13	13.10634112
738.311	13.11355695
738.493	13.11934601
738.674	13.11624348
738.856	13.11204262
739.037	13.10760002
739.219	13.11025027
739.4	13.09422511
739.581	13.09731885
739.763	13.11270761
739.944	13.11166821
740.125	13.09144266
740.307	13.11191892
740.488	13.09227155
740.669	13.0820504
740.851	13.07629442
741.032	13.07291181
741.213	13.0650879
741.395	13.06572454
741.576	13.06786204
741.757	13.08097178
741.938	13.08654006
742.119	13.08323673
742.301	13.07097285
742.482	13.08045405
742.663	13.07294024
742.844	13.06824247
743.025	13.06605136
743.206	13.05633332
743.387	13.04042019
743.568	13.03203536
743.749	13.03538488
743.93	13.04217879
744.111	13.03942745
744.292	13.04990875
744.473	13.0563009
744.654	13.04283862
744.835	13.05954437
745.016	13.05943925
745.197	13.06964234
745.378	13.05917897
745.559	13.0511379
745.74	13.0466848
745.921	13.04617985
746.102	13.05643645
746.282	13.05946984
746.463	13.05335146
746.644	13.05019967
746.825	13.04810134
747.006	13.06368252
747.186	13.06821343
747.367	13.07758358
747.548	13.07944665
747.728	13.08574082
747.909	13.07387256
748.09	13.07990034
748.27	13.08482622
748.451	13.08217789
748.632	13.07338942
748.812	13.09098036
748.993	13.09262796
749.173	13.09837504
749.354	13.09288668
749.535	13.08472145
749.715	13.07156146
749.896	13.05747213
750.076	13.05678943
750.257	13.05813015
750.437	13.07181102
750.618	13.07012865
750.798	13.06508937
750.978	13.07536686
751.159	13.07021145
751.339	13.06635174
751.52	13.0802631
751.7	13.09734475
751.88	13.08537871
752.061	13.08730673
752.241	13.10388589
752.421	13.09287427
752.601	13.07527941
752.782	13.05828009
752.962	13.06101357
753.142	13.06342563
753.322	13.06361321
753.503	13.08770173
753.683	13.10234664
753.863	13.09499079
754.043	13.09695265
754.223	13.09315937
754.403	13.11180157
754.583	13.13772527
754.764	13.13771532
754.944	13.13420123
755.124	13.14271696
755.304	13.14190693
755.484	13.14233874
755.664	13.15855374
755.844	13.14873236
756.024	13.16334768
756.204	13.18216373
756.384	13.18503503
756.564	13.20086123
756.743	13.20733487
756.923	13.20972571
757.103	13.21954128
757.283	13.2162704
757.463	13.22934916
757.643	13.2228266
757.823	13.25622556
758.002	13.2691375
758.182	13.28871391
758.362	13.27728278
758.542	13.27916837
758.721	13.28000763
758.901	13.28682976
759.081	13.26962725
759.261	13.27125132
759.44	13.27216299
759.62	13.30088471
759.8	13.28946533
759.979	13.29831976
760.159	13.32615159
760.338	13.34031719
760.518	13.33536199
760.698	13.35459423
760.877	13.34955454
761.057	13.36211672
761.236	13.36779415
761.416	13.39015182
761.595	13.37085152
761.775	13.35507005
761.954	13.3066851
762.133	13.29338373
762.313	13.28685275
762.492	13.29644199
762.672	13.27925232
762.851	13.2810151
763.03	13.27257
763.21	13.27797725
763.389	13.24643914
763.568	13.23534112
763.748	13.22178499
763.927	13.20851338
764.106	13.20769512
764.286	13.21122128
764.465	13.20150793
764.644	13.21787674
764.823	13.1957366
765.002	13.18823632
765.182	13.18548979
765.361	13.1894147
765.54	13.20030859
765.719	13.20264146
765.898	13.21161381
766.077	13.21005116
766.256	13.21008246
766.435	13.20822889
766.614	13.19724553
766.793	13.21071289
766.972	13.21834921
767.151	13.21570881
767.33	13.21342331
767.509	13.22077279
767.688	13.20783231
767.867	13.17528788
768.046	13.16579559
768.225	13.16908889
768.404	13.17740919
768.583	13.19562166
768.762	13.20130463
768.94	13.21546893
769.119	13.21479629
769.298	13.22116891
769.477	13.22580941
769.656	13.22320612
769.834	13.23393973
770.013	13.22258975
770.192	13.23772458
770.37	13.24896002
770.549	13.22449136
770.728	13.21660931
770.906	13.23593097
771.085	13.25004593
771.264	13.25439503
771.442	13.27557706
771.621	13.29945146
771.799	13.30695253
771.978	13.2982385
772.157	13.28538925
772.335	13.27368762
772.514	13.25407626
772.692	13.25562822
772.871	13.25144732
773.049	13.24535111
773.228	13.23894981
773.406	13.24921383
773.584	13.24538457
773.763	13.24730927
773.941	13.25174323
774.119	13.26838388
774.298	13.29345441
774.476	13.27910979
774.655	13.26972105
774.833	13.28558283
775.011	13.28589611
775.189	13.28277277
775.368	13.28255931
775.546	13.29245393
775.724	13.29813023
775.902	13.31814907
776.08	13.32703956
776.259	13.34293439
776.437	13.33266337
776.615	13.35389946
776.793	13.35752843
776.971	13.40418435
777.149	13.40266137
777.327	13.40364216
777.505	13.41176678
777.683	13.41442783
777.861	13.42204822
778.04	13.40947073
778.218	13.44089956
778.395	13.45725361
778.573	13.44832502
778.751	13.45978287
778.929	13.47352475
779.107	13.49927031
779.285	13.5232544
779.463	13.54395769
779.641	13.52990926
779.819	13.53255263
779.997	13.54862005
780.174	13.56278635
780.352	13.55109101
780.53	13.55797255
780.708	13.52755335
780.886	13.52712049
781.063	13.53822224
781.241	13.55510394
781.419	13.56673992
781.596	13.55768468
781.774	13.57230773
781.952	13.55618223
782.129	13.56211938
782.307	13.56429847
782.485	13.56407651
782.662	13.54824798
782.84	13.55266747
783.017	13.54332469
783.195	13.53524803
783.372	13.56235377
783.55	13.55723825
783.727	13.55484263
783.905	13.54784472
784.082	13.57328939
784.26	13.56273522
784.437	13.5929842
784.615	13.60670935
784.792	13.62776309
784.969	13.63445777
785.147	13.62642738
785.324	13.63226163
785.501	13.62144179
785.679	13.65500993
785.856	13.67196456
786.033	13.68526846
786.211	13.67653957
786.388	13.69133961
786.565	13.66931991
786.742	13.68394585
786.92	13.68940858
787.097	13.68984258
787.274	13.73336213
787.451	13.7161207
787.628	13.70947242
787.805	13.71520404
787.982	13.75773779
788.16	13.73112411
788.337	13.73792493
788.514	13.71103614
788.691	13.7210062
788.868	13.72434105
789.045	13.69662714
789.222	13.69474806
789.399	13.67860863
789.576	13.67489557
789.753	13.67953713
789.93	13.70785015
790.106	13.70976117
790.283	13.73951736
790.46	13.72513272
790.637	13.75095022
790.814	13.76421662
790.991	13.74781902
791.168	13.77595854
791.344	13.81247791
791.521	13.81897592
791.698	13.81247112
791.875	13.84114181
792.051	13.84456861
792.228	13.88033555
792.405	13.89660206
792.581	13.93997153
792.758	13.97710085
792.935	14.01567119
793.111	14.03500932
793.288	14.0473918
793.465	14.05950468
793.641	14.06784992
793.818	14.07172029
793.994	14.07926674
794.171	14.09998287
794.347	14.10690374
794.524	14.09085561
794.7	14.0772882
794.877	14.08696073
795.053	14.06987609
795.23	14.06636838
795.406	14.06491105
795.583	14.03868482
795.759	14.06006628
795.935	14.05318634
796.112	14.03686109
796.288	14.00274393
796.464	14.01530818
796.641	14.01793828
796.817	14.00316786
796.993	14.01348452
797.169	13.99965392
797.346	14.00960057
797.522	14.07416644
797.698	14.06509953
797.874	14.06852826
798.051	14.03558798
798.227	14.04490322
798.403	14.06224389
798.579	14.0643434
798.755	14.12293519
798.931	14.13921719
799.107	14.14848619
799.283	14.20576059
799.459	14.16689208
799.635	14.18261359
799.811	14.18939807
799.987	14.19036816
800.163	14.18033213
800.339	14.18625491
800.515	14.22394986
800.691	14.2054866
800.867	14.21630066
801.043	14.21927808
801.219	14.21695096
801.395	14.2704958
801.571	14.30302399
801.746	14.3338942
801.922	14.33453722
802.098	14.35106228
802.274	14.35679205
802.45	14.30819086
802.625	14.2936367
802.801	14.26661705
802.977	14.24394654
803.152	14.28838894
803.328	14.29469298
803.504	14.3172589
803.679	14.33910749
803.855	14.36114971
804.031	14.38577951
804.206	14.39076139
804.382	14.45369733
804.557	14.47504512
804.733	14.49042769
804.909	14.46553238
805.084	14.43071682
805.26	14.38903082
805.435	14.40438931
805.61	14.40698653
805.786	14.44287356
805.961	14.4659431
806.137	14.50553592
806.312	14.5132044
806.488	14.51861816
806.663	14.54279376
806.838	14.61236049
807.014	14.60540673
807.189	14.59444267
807.364	14.61201019
807.54	14.66039999
807.715	14.68401635
807.89	14.66144651
808.065	14.62769696
808.241	14.6125563
808.416	14.58069957
808.591	14.55220674
808.766	14.57160765
808.941	14.56752764
809.116	14.54873085
809.291	14.59640277
809.467	14.56936277
809.642	14.57822699
809.817	14.58133502
809.992	14.6003553
810.167	14.69914411
810.342	14.69566295
810.517	14.58753597
810.692	14.63374515
810.867	14.63813024
811.042	14.6164171
811.217	14.57510453
811.392	14.54847796
811.567	14.54586706
811.741	14.6263295
811.916	14.70460517
812.091	14.72181958
812.266	14.74736849
812.441	14.82339772
812.616	14.86955834
812.79	14.90706075
812.965	14.89035799
813.14	14.86425919
813.315	14.84002946
813.489	14.80779953
813.664	14.8164809
813.839	14.83084427
814.013	14.85425031
814.188	14.9244235
814.363	14.92584444
814.537	14.98933327
814.712	14.99022783
814.887	14.93238215
815.061	14.97785511
815.236	14.99007872
815.41	14.93374389
815.585	14.90801151
815.759	14.9379051
815.934	14.90495842
816.108	14.87556495
816.283	14.88875448
816.457	14.92450372
816.631	15.01862256
816.806	15.09587655
816.98	15.17054149
817.155	15.23516059
817.329	15.27112825
817.503	15.24668149
817.678	15.27522628
817.852	15.28809768
818.026	15.25804561
818.201	15.20225167
818.375	15.28140752
818.549	15.40758125
818.723	15.42646635
818.897	15.48258377
819.072	15.43467676
819.246	15.43328636
819.42	15.42134598
819.594	15.50742714
819.768	15.48467028
819.942	15.51844985
820.116	15.45491149
820.29	15.37069226
820.465	15.43174116
820.639	15.39772469
820.813	15.37255903
820.987	15.36789788
821.161	15.34726451
821.335	15.35293859
821.509	15.34263146
821.682	15.40293468
821.856	15.48116148
822.03	15.48531889
822.204	15.41397895
822.378	15.32472882
822.552	15.30014867
822.726	15.31232465
822.9	15.35350642
823.073	15.33103183
823.247	15.34809391
823.421	15.32989019
823.595	15.34343871
823.768	15.37696703
823.942	15.37646355
824.116	15.38728215
824.289	15.34656735
824.463	15.38326303
824.637	15.36121424
824.81	15.40340369
824.984	15.42198216
825.158	15.46949232
825.331	15.3552532
825.505	15.33908011
825.678	15.29658621
825.852	15.40545972
826.025	15.54592348
826.199	15.44568576
826.372	15.51461892
826.546	15.49492092
826.719	15.54437513
826.893	15.53914691
827.066	15.47695964
827.24	15.43270428
827.413	15.47588309
827.586	15.57451843
827.76	15.5083099
827.933	15.48064267
828.106	15.5642414
828.28	15.60961976
828.453	15.57607803
828.626	15.61158653
828.799	15.59488777
828.973	15.72092917
829.146	15.64495686
829.319	15.67099667
829.492	15.57878025
829.665	15.49833856
829.839	15.63962031
830.012	15.66126693
830.185	15.68241671
830.358	15.67803011
830.531	15.61720437
830.704	15.71957985
830.877	15.70941624
831.05	15.74260351
831.223	15.72238277
831.396	15.66521839
831.569	15.77598417
831.742	15.66323834
831.915	15.6395355
832.088	15.66404656
832.261	15.62482415
832.434	15.54617034
832.607	15.54467564
832.779	15.57100154
832.952	15.46062475
833.125	15.48048781
833.298	15.56089525
833.471	15.54245287
833.643	15.49210887
833.816	15.52016712
833.989	15.51838835
834.162	15.54971009
834.334	15.46582301
834.507	15.52534693
834.68	15.55409565
834.852	15.52029171
835.025	15.5948122
835.198	15.46433389
835.37	15.49099148
835.543	15.55344358
835.715	15.49703318
835.888	15.49056191
836.061	15.57757228
836.233	15.61222159
836.406	15.69084305
836.578	15.79983644
836.751	15.76026035
836.923	15.75057786
837.095	15.77785142
837.268	15.82736763
837.44	15.86923778
837.613	15.83821145
837.785	15.82473565
837.957	15.90376836
838.13	15.75286138
838.302	15.85071233
838.474	15.84589379
838.647	15.89578307
838.819	16.00568508
838.991	15.93249056
839.163	15.83415002
839.336	15.98196326
839.508	16.05927895
839.68	16.00351009
839.852	16.04830665
840.024	16.07040789
840.196	16.13224977
840.368	16.16420188
840.541	16.17825173
840.713	16.19126559
840.885	16.17832341
841.057	16.11847913
841.229	16.26265369
841.401	16.20686742
841.573	16.15182328
841.745	16.21232838
841.917	16.02765901
842.089	16.13180949
842.261	16.11586844
842.432	16.03543364
842.604	16.14695368
842.776	16.22651153
842.948	16.1296058
843.12	15.99104611
843.292	16.1308125
843.464	16.11032335
843.635	16.03449507
843.807	15.97439409
843.979	16.05601103
844.151	15.86032993
844.322	15.74070328
844.494	15.74215343
844.666	15.58327686
844.837	15.51395526
845.009	15.83292222
845.181	15.90768406
845.352	15.86637616
845.524	15.76136262
845.695	15.67475482
845.867	15.56529665
846.039	15.59430184
846.21	15.43436684
846.382	15.29887739
846.553	15.33838361
846.725	15.50279215
846.896	15.68093289
847.068	15.63499185
847.239	15.61983865
847.41	15.68832006
847.582	15.54023343
847.753	15.69952179
847.925	16.04623853
848.096	16.11782145
848.267	16.43888759
848.439	16.3048441
848.61	16.0609719
848.781	16.16448614
848.952	16.4497099
849.124	16.58088606
849.295	16.50990137
849.466	16.35155073
849.637	16.38883768
849.808	16.3199884
849.98	16.41332476
850.151	16.33675492
850.322	16.35839386
850.493	16.07029852
850.664	15.99343905
850.835	16.05126097
851.006	15.92839954
851.177	16.00690159
851.348	15.92504699
851.519	15.94200984
851.69	15.78040546
851.861	15.6448464
852.032	15.78640445
852.203	15.87768848
852.374	15.73475133
852.545	15.53748655
852.716	15.56730588
852.887	15.36488273
853.057	15.71479766
853.228	15.7956235
853.399	15.89244638
853.57	16.13255477
853.741	16.34546498
853.911	16.06851931
854.082	16.02041964
854.253	16.33965423
854.424	16.3669894
854.594	16.72778917
854.765	16.74580279
854.936	16.64559566
855.106	16.2666748
855.277	16.39952946
855.447	16.38295322
855.618	16.49843437
855.789	16.54359718
855.959	16.3444487
856.13	16.58846612
856.3	16.81013246
856.471	16.98815553
856.641	16.90969119
856.812	16.83854474
856.982	16.94268682
857.153	17.02303772
857.323	16.95820793
857.493	16.95702122
857.664	17.04194586
857.834	16.64769106
858.004	16.54338518
858.175	16.27115738
858.345	16.26145857
858.515	16.33197921
858.686	16.58503167
858.856	16.5682351
859.026	16.31341617
859.196	16.1617193
859.367	15.90667609
859.537	16.20111732
859.707	15.97780902
859.877	15.82362377
860.047	15.72145997
860.217	15.74343869
860.387	15.92234145
860.558	15.81459237
860.728	15.27615275
860.898	15.26861916
861.068	15.68179189
861.238	15.60657669
861.408	15.84493496
861.578	16.07145871
861.748	15.84465337
861.918	15.86519567
862.088	16.1056155
862.257	15.98999423
862.427	16.07787013
862.597	16.20993142
862.767	16.13667178
862.937	16.65286228
863.107	16.84440063
863.277	16.90070482
863.446	16.26204309
863.616	16.48318173
863.786	16.47073958
863.956	16.26022837
864.125	16.50920096
864.295	16.82767118
864.465	16.76720794
864.634	16.25366183
864.804	16.10064623
864.974	16.07245753
865.143	16.08220551
865.313	16.58264471
865.482	16.79877408
865.652	16.31137725
865.822	16.34641129
865.991	16.03841984
866.161	15.97210962
866.33	16.16683656
866.5	16.12986807
866.669	15.67647468
866.838	15.08069828
867.008	16.10946337
867.177	15.92245797
867.347	15.82803991
867.516	15.59520956
867.685	15.28789191
867.855	15.15194225
868.024	14.75738106
868.193	14.73592436
868.363	14.97635143
868.532	14.78699597
868.701	14.64490842
868.87	14.08440147
869.04	13.98955012
869.209	14.26396326
869.378	14.1229658
869.547	14.10041295
869.716	14.24372578
869.885	14.42895854
870.055	14.1174279
870.224	14.76566075
870.393	14.73493029
870.562	14.45438445
870.731	14.71656677
870.9	14.69238762
871.069	15.20301467
871.238	15.71989219
871.407	15.48760094
871.576	15.71121758
871.745	16.14861227
871.914	15.76303915
872.083	15.6365915
872.251	15.33712379
872.42	15.08608713
872.589	15.06552267
872.758	14.73566761
872.927	14.78992503
873.096	15.259969
873.264	15.68851585
873.433	15.42398063
873.602	15.26759184
873.771	14.92822859
873.939	15.97404204
874.108	15.97396549
874.277	16.03387682
874.445	15.94378117
874.614	16.46572311
874.783	15.77552337
874.951	15.76039926
875.12	16.68761747
875.288	16.95328157
875.457	16.84699355
875.625	16.84650149
875.794	16.75648765
875.962	17.98169987
876.131	18.29691622
876.299	18.76681359
876.468	18.33573625
876.636	18.39750666
876.805	18.34216333
876.973	18.23043006
877.141	18.89285474
877.31	18.61642218
877.478	18.26446851
877.647	17.31810407
877.815	17.38245384
877.983	17.31125268
878.151	16.95592551
878.32	17.45208805
878.488	18.60891157
878.656	17.54122027
878.824	17.63946321
878.992	17.95246915
879.161	19.02543104
879.329	18.77715359
879.497	18.81957943
879.665	18.03300308
879.833	18.32112806
880.001	18.18348349
880.169	18.05001263
880.337	18.47148815
880.505	18.22807645
880.673	17.61619579
880.841	17.90838224
881.009	18.94734984
881.177	19.78190673
881.345	18.86700836
881.513	19.6660982
881.681	18.31771244
881.849	18.47140823
882.017	17.77591506
882.185	18.93458824
882.352	17.92530328
882.52	17.33478
882.688	15.51148674
882.856	15.97047708
883.024	14.90819783
883.191	15.38599248
883.359	14.7596995
883.527	14.85132009
883.694	14.93674073
883.862	14.7617349
884.03	14.21353486
884.197	13.05817041
884.365	13.29883627
884.533	12.76515067
884.7	13.7338959
884.868	14.66791519
885.035	12.81724444
885.203	15.52820327
885.37	15.3561753
885.538	15.05173159
885.705	13.34751541
885.873	14.09556148
886.04	15.50479298
886.208	16.52653617
886.375	17.16848325
886.542	17.26175882
886.71	16.9047219
886.877	17.90212494
