Data from carapace1_Reflection_09-01-37-866.txt Node
Date: Wed Dec 06 09:01:37 AEST 2023
User: uqkchene_local
Spectrometer: USB4E02642
Trigger mode: 4
Integration Time (sec): 1.700000E-2
Scans to average: 10
Electric dark correction enabled: true
Nonlinearity correction enabled: false
Boxcar width: 10
XAxis mode: Wavelengths
Number of Pixels in Spectrum: 3648
>>>>>Begin Spectral Data<<<<<
179.217	166.3796073
179.432	136.43724696
179.647	268.8409433
179.862	224.18235877
180.077	1233.6
180.293	455.92105263
180.508	2069.3877551
180.723	489.44099379
180.938	-316.50135257
181.153	-38.70211102
181.368	-4.30321086
181.583	30.18956237
181.798	48.74381075
182.013	57.77377197
182.228	55.52747107
182.443	65.38968035
182.658	67.47314631
182.873	61.39667458
183.088	62.08749685
183.303	59.50503552
183.518	59.53417652
183.733	55.82411761
183.948	55.16947605
184.162	56.3789152
184.377	52.36367695
184.592	55.72221307
184.807	58.4153774
185.022	58.79419538
185.237	57.83959372
185.452	56.71270596
185.667	57.47673855
185.882	59.20332776
186.096	57.24159048
186.311	56.20560156
186.526	56.67945104
186.741	53.19514802
186.956	49.58623592
187.17	49.94058088
187.385	52.95267146
187.6	52.20577738
187.815	55.34908037
188.03	49.76616364
188.244	49.34314999
188.459	50.34187614
188.674	54.09207781
188.889	54.98759788
189.103	49.53563351
189.318	44.65906333
189.533	41.24574977
189.747	39.59081296
189.962	40.38871536
190.177	38.87288535
190.391	35.60502109
190.606	37.06682186
190.821	36.80789964
191.035	35.11144503
191.25	39.20305298
191.465	36.50148115
191.679	33.7972167
191.894	32.69643303
192.109	33.631644
192.323	33.82303357
192.538	36.40402704
192.752	38.63196183
192.967	37.95025528
193.181	36.31708613
193.396	36.17276257
193.611	40.58634051
193.825	42.99284203
194.04	45.09795091
194.254	44.80963375
194.469	40.89172547
194.683	42.96770288
194.898	44.59549514
195.112	44.9032819
195.327	43.73240381
195.541	44.84457427
195.756	43.97556432
195.97	45.5231032
196.184	46.25015444
196.399	43.85335478
196.613	43.42231692
196.828	42.66115075
197.042	41.89011176
197.257	39.95954318
197.471	39.6211391
197.685	39.16043938
197.9	39.65663846
198.114	37.5692843
198.328	37.02301074
198.543	34.46049418
198.757	33.81413646
198.971	37.76908864
199.186	37.9061526
199.4	37.85279933
199.614	34.59677074
199.829	38.27052293
200.043	39.5889446
200.257	37.05982622
200.471	38.9757938
200.686	41.6427651
200.9	41.80387152
201.114	41.90530196
201.328	39.80246127
201.543	41.67036156
201.757	42.4383771
201.971	42.99702676
202.185	43.76303877
202.399	44.62822633
202.614	46.47870801
202.828	47.04664801
203.042	50.8094173
203.256	51.46473106
203.47	51.11036963
203.684	49.75857687
203.899	51.08893259
204.113	53.70825237
204.327	51.21888444
204.541	50.30445665
204.755	52.77996476
204.969	51.87030536
205.183	51.44624203
205.397	52.95516926
205.611	53.43956907
205.825	56.61365474
206.039	53.94514689
206.253	52.88997341
206.467	50.71925242
206.681	49.22499172
206.895	48.21834159
207.109	50.33284986
207.323	49.83101052
207.537	47.18950849
207.751	48.95635674
207.965	48.74210351
208.179	49.20724589
208.393	47.99369393
208.607	47.97400754
208.821	49.0349076
209.035	48.63855377
209.249	48.32580537
209.463	46.282521
209.677	45.60832069
209.891	44.18735258
210.104	44.73197782
210.318	42.65302255
210.532	44.53694863
210.746	43.84332053
210.96	45.88947471
211.174	45.90732252
211.387	45.10811978
211.601	42.8109919
211.815	44.2517787
212.029	46.21768028
212.243	45.47067871
212.456	46.69925679
212.67	46.25176234
212.884	46.82344682
213.098	44.51765435
213.311	45.48574955
213.525	46.41988247
213.739	46.293701
213.953	50.79472438
214.166	48.81247916
214.38	49.19653894
214.594	47.52998889
214.807	49.12267347
215.021	48.89232554
215.235	50.81121777
215.448	49.02940835
215.662	49.95037516
215.876	52.96836118
216.089	50.84268565
216.303	49.83957219
216.516	50.58378422
216.73	50.47336106
216.944	48.23385151
217.157	47.58612743
217.371	46.52047351
217.584	46.54197477
217.798	46.16721299
218.011	43.92397302
218.225	45.28466574
218.439	42.05987831
218.652	42.42770323
218.866	43.1473098
219.079	43.41997584
219.293	43.56809684
219.506	43.42540177
219.719	43.6991007
219.933	44.51208056
220.146	43.76235408
220.36	43.02649671
220.573	47.13385298
220.787	47.62469868
221	47.27245498
221.214	45.03014904
221.427	45.38220764
221.64	48.09075178
221.854	47.69750904
222.067	48.55274729
222.28	48.76699521
222.494	51.0880068
222.707	49.44834897
222.92	48.4850824
223.134	48.97432892
223.347	48.35121951
223.56	47.00851348
223.774	47.03293309
223.987	45.13353928
224.2	42.47724291
224.414	43.10035485
224.627	43.65897693
224.84	42.73115667
225.053	41.74377638
225.267	42.38311304
225.48	42.78242278
225.693	43.74362654
225.906	43.0065807
226.119	39.90785179
226.333	41.15345926
226.546	41.67624699
226.759	41.15163979
226.972	41.40427866
227.185	42.2029113
227.398	43.43474064
227.612	41.97902123
227.825	42.14861488
228.038	45.06361056
228.251	45.63171338
228.464	45.52440149
228.677	47.24246963
228.89	47.82245954
229.103	46.86811561
229.316	47.98329632
229.529	46.39082453
229.743	45.54937642
229.956	44.18965802
230.169	46.50201712
230.382	48.88772744
230.595	49.86866427
230.808	50.34040983
231.021	50.24462007
231.234	52.12423393
231.447	50.64406552
231.66	49.5927662
231.872	50.84884156
232.085	51.82708383
232.298	53.97043186
232.511	53.04052897
232.724	52.25729398
232.937	53.90243057
233.15	54.28275097
233.363	52.75386959
233.576	53.47724335
233.789	52.21834584
234.002	52.7969698
234.214	50.13751088
234.427	49.12466096
234.64	47.35814911
234.853	44.51531984
235.066	44.64381456
235.279	45.38718682
235.491	47.2544968
235.704	44.21306371
235.917	43.09399608
236.13	44.47175263
236.342	42.28456241
236.555	43.57420883
236.768	42.6941953
236.981	42.46626056
237.193	40.82770667
237.406	39.87864487
237.619	39.73059527
237.832	39.37645511
238.044	39.70292645
238.257	39.27746561
238.47	37.652878
238.682	39.75858678
238.895	40.72243994
239.108	40.68869305
239.32	41.82325456
239.533	41.866134
239.746	39.70047745
239.958	37.34188365
240.171	38.54003413
240.383	40.51859339
240.596	39.39404517
240.808	40.75076206
241.021	40.49958915
241.234	40.18454441
241.446	39.42897356
241.659	38.64147397
241.871	38.26714801
242.084	37.4297822
242.296	38.56198717
242.509	37.90541187
242.721	38.60256608
242.934	39.85050518
243.146	39.60062323
243.359	40.71054718
243.571	41.21054798
243.784	41.10735554
243.996	40.31564309
244.208	41.47740159
244.421	41.19791154
244.633	41.08419316
244.846	41.22067866
245.058	42.65323796
245.27	41.65374023
245.483	42.25499493
245.695	38.90802901
245.907	38.83947075
246.12	40.11254276
246.332	41.42596095
246.544	42.52481093
246.757	42.88262576
246.969	42.31436332
247.181	41.59444238
247.394	42.58837138
247.606	42.23383274
247.818	41.58619979
248.03	41.56499499
248.243	41.58851214
248.455	41.88232135
248.667	41.64774784
248.879	41.73171117
249.092	41.63669361
249.304	40.29367596
249.516	38.98914541
249.728	39.2289091
249.94	37.55795458
250.153	39.95446784
250.365	41.70061274
250.577	43.05009403
250.789	42.52448012
251.001	42.63488684
251.213	40.54044879
251.425	40.56762994
251.637	40.91510811
251.85	40.29333069
252.062	40.26122449
252.274	38.92311202
252.486	38.92117515
252.698	39.8525599
252.91	39.27762356
253.122	38.79703081
253.334	39.1571554
253.546	38.94241542
253.758	38.07287814
253.97	39.62098842
254.182	37.97435815
254.394	37.71841995
254.606	38.64367144
254.818	39.18548829
255.03	40.15208627
255.242	39.2811798
255.454	38.73716192
255.666	38.91980899
255.877	40.7362684
256.089	42.91936889
256.301	41.79758164
256.513	43.99987438
256.725	44.44375408
256.937	43.67361266
257.149	43.32396679
257.361	43.84219554
257.572	45.1032326
257.784	44.98922582
257.996	44.81335643
258.208	48.14414192
258.42	45.06998923
258.631	46.93692284
258.843	47.34359871
259.055	45.78525389
259.267	43.81153524
259.479	42.26110363
259.69	42.64372457
259.902	42.06082643
260.114	42.32946549
260.325	40.72815685
260.537	38.97393463
260.749	39.56417241
260.961	38.0114192
261.172	38.2461667
261.384	39.03650829
261.596	39.29201184
261.807	38.81581161
262.019	37.87144433
262.23	38.06696017
262.442	39.80691437
262.654	38.37711101
262.865	40.90589299
263.077	40.51541895
263.288	42.65496652
263.5	42.54527655
263.712	43.3669282
263.923	42.66378265
264.135	45.33298288
264.346	46.07638544
264.558	46.88387636
264.769	49.90541931
264.981	49.8484404
265.192	49.03621207
265.404	49.81279613
265.615	50.21556689
265.827	48.00719209
266.038	46.82289176
266.25	47.60061195
266.461	47.85779686
266.673	47.38686765
266.884	46.70725995
267.095	47.91409294
267.307	46.39928528
267.518	46.33580263
267.73	44.43660391
267.941	45.21160247
268.152	44.18393823
268.364	44.20340212
268.575	43.21985172
268.786	42.99541827
268.998	42.09487938
269.209	39.08294972
269.42	40.90341826
269.632	40.57258969
269.843	38.55610122
270.054	39.89153545
270.265	41.96135058
270.477	42.01131516
270.688	42.06298102
270.899	42.18697677
271.11	42.32722795
271.322	42.85319665
271.533	42.06337151
271.744	43.52210318
271.955	42.78437031
272.166	43.42361737
272.378	43.08742764
272.589	42.72981003
272.8	42.55873882
273.011	41.04710177
273.222	41.78688865
273.433	42.81108581
273.644	43.31906098
273.856	40.82237129
274.067	42.34742599
274.278	44.29883545
274.489	40.74621245
274.7	40.3407328
274.911	39.5383872
275.122	40.03972523
275.333	40.43425159
275.544	38.93037173
275.755	37.28922263
275.966	35.22657151
276.177	33.62812594
276.388	33.12181028
276.599	32.15570013
276.81	33.00713951
277.021	34.35518841
277.232	33.83271933
277.443	33.31236152
277.654	32.4785399
277.865	32.20111303
278.076	31.51046735
278.287	31.45126847
278.497	30.91740773
278.708	29.48967777
278.919	30.39140879
279.13	30.6831686
279.341	31.48446895
279.552	29.90129494
279.763	29.21443995
279.973	31.29152635
280.184	33.33836357
280.395	35.49590296
280.606	36.7842245
280.817	37.73367672
281.027	38.05255295
281.238	37.30161016
281.449	36.90589835
281.66	37.85553509
281.87	39.58168091
282.081	38.72217421
282.292	39.10582087
282.503	40.90436152
282.713	42.25136193
282.924	42.22953358
283.135	42.40107054
283.345	43.31511543
283.556	42.98092658
283.767	42.84615996
283.977	42.74106603
284.188	42.83403601
284.399	43.69842763
284.609	42.08503613
284.82	41.30585143
285.03	40.4805864
285.241	39.60618077
285.451	41.44403533
285.662	42.99560931
285.873	43.23387873
286.083	43.56538641
286.294	42.12525809
286.504	43.30322021
286.715	43.00822562
286.925	42.6172396
287.136	41.43966203
287.346	40.08401325
287.557	41.98127454
287.767	42.32812973
287.978	42.68559247
288.188	40.70980639
288.399	40.29065263
288.609	39.41890149
288.819	37.92952337
289.03	37.66303104
289.24	36.0802679
289.451	36.34167386
289.661	38.38900277
289.871	36.57829825
290.082	35.20702337
290.292	34.47103007
290.502	34.43364804
290.713	34.67013383
290.923	34.20066103
291.133	35.05840188
291.344	33.40271668
291.554	33.86029028
291.764	35.17608602
291.974	34.66011531
292.185	33.97568471
292.395	32.99737995
292.605	34.4421765
292.815	33.80852423
293.026	33.32680076
293.236	33.51306655
293.446	33.77227213
293.656	34.89769071
293.866	34.18848087
294.077	33.23146877
294.287	32.92456967
294.497	32.75556937
294.707	32.8049076
294.917	32.12823099
295.127	31.38514737
295.337	30.74695173
295.548	29.66722357
295.758	30.20387168
295.968	29.38147726
296.178	28.69699045
296.388	28.09845277
296.598	28.15255296
296.808	28.304644
297.018	27.69042416
297.228	27.70431041
297.438	27.73643518
297.648	27.47906633
297.858	27.28380439
298.068	26.64526832
298.278	26.33026818
298.488	26.35530332
298.698	26.439359
298.908	26.2192611
299.118	26.06673949
299.328	25.86719563
299.538	25.88033231
299.748	26.00143834
299.957	26.04305165
300.167	25.68465117
300.377	25.498391
300.587	25.50445368
300.797	25.31869382
301.007	25.21581958
301.217	25.02857114
301.426	25.04338005
301.636	24.97254664
301.846	24.90902149
302.056	24.83161099
302.266	24.70448862
302.475	24.75236252
302.685	24.75731475
302.895	24.62645593
303.105	24.42002068
303.314	24.47839186
303.524	24.37982375
303.734	24.36889946
303.944	24.32246785
304.153	24.2397124
304.363	24.2060501
304.573	24.10108634
304.782	24.13426456
304.992	24.1515042
305.202	24.1788557
305.411	24.11670856
305.621	24.08924525
305.831	24.11031777
306.04	24.09415636
306.25	24.05800152
306.459	24.03393881
306.669	24.0708518
306.878	24.0556769
307.088	23.9870179
307.298	23.9698014
307.507	23.96136624
307.717	23.91566513
307.926	23.93351218
308.136	23.93805361
308.345	23.99996414
308.555	23.98375198
308.764	23.9762877
308.974	23.99032148
309.183	23.9472808
309.392	23.89257084
309.602	23.84552832
309.811	23.81393285
310.021	23.72230331
310.23	23.65722376
310.44	23.6597056
310.649	23.65322193
310.858	23.61509138
311.068	23.57239947
311.277	23.56245034
311.486	23.58553069
311.696	23.56037444
311.905	23.57104304
312.114	23.54581424
312.324	23.55781513
312.533	23.52528273
312.742	23.4907035
312.952	23.47401798
313.161	23.43985037
313.37	23.46187646
313.579	23.49200482
313.789	23.49733877
313.998	23.49145621
314.207	23.52687641
314.416	23.55323414
314.625	23.53551028
314.835	23.5165335
315.044	23.50488457
315.253	23.5081108
315.462	23.48692351
315.671	23.47149556
315.88	23.45762806
316.09	23.44023493
316.299	23.4317664
316.508	23.39694262
316.717	23.37470254
316.926	23.36602983
317.135	23.32880114
317.344	23.30671232
317.553	23.27715359
317.762	23.25958293
317.971	23.24964424
318.18	23.24903012
318.389	23.2680355
318.598	23.24981741
318.807	23.24549161
319.016	23.24535281
319.225	23.2252149
319.434	23.23289345
319.643	23.22142762
319.852	23.2219311
320.061	23.20208543
320.27	23.21518231
320.479	23.22233406
320.688	23.19869058
320.897	23.18517961
321.105	23.14592408
321.314	23.14360137
321.523	23.15162543
321.732	23.16563132
321.941	23.1711631
322.15	23.17683056
322.359	23.15395086
322.567	23.13905062
322.776	23.10497129
322.985	23.11519416
323.194	23.1017436
323.403	23.09752425
323.611	23.09660859
323.82	23.07364255
324.029	23.06210725
324.237	23.06326357
324.446	23.05471066
324.655	23.0426438
324.864	23.02843979
325.072	23.0164216
325.281	23.02477677
325.49	23.03757093
325.698	23.00888295
325.907	22.98370035
326.116	22.9620374
326.324	22.94311726
326.533	22.92644883
326.741	22.90007979
326.95	22.89902234
327.159	22.90942836
327.367	22.88618291
327.576	22.89076025
327.784	22.87285113
327.993	22.85328457
328.201	22.83896941
328.41	22.83224178
328.618	22.80192189
328.827	22.80089024
329.035	22.76581674
329.244	22.74933315
329.452	22.74710661
329.661	22.73392166
329.869	22.71426155
330.078	22.73674799
330.286	22.73901428
330.495	22.728833
330.703	22.73455895
330.911	22.72172079
331.12	22.74245289
331.328	22.73141818
331.537	22.69773675
331.745	22.68819463
331.953	22.6770754
332.162	22.68882224
332.37	22.68514551
332.578	22.69773272
332.787	22.69640492
332.995	22.7176439
333.203	22.71328737
333.411	22.72325913
333.62	22.71899959
333.828	22.72196593
334.036	22.73231121
334.244	22.7319685
334.453	22.72559082
334.661	22.7367566
334.869	22.74072634
335.077	22.72985359
335.285	22.71856256
335.494	22.69797366
335.702	22.68759605
335.91	22.685949
336.118	22.66838073
336.326	22.66623771
336.534	22.65189259
336.742	22.63748959
336.951	22.63861209
337.159	22.63166588
337.367	22.62463605
337.575	22.61933442
337.783	22.62611783
337.991	22.62594943
338.199	22.60565863
338.407	22.60240306
338.615	22.5958927
338.823	22.58050719
339.031	22.56195949
339.239	22.55769832
339.447	22.55636083
339.655	22.55055166
339.863	22.54989213
340.071	22.55114119
340.279	22.55889929
340.487	22.56319855
340.695	22.55885839
340.903	22.54763392
341.11	22.56487308
341.318	22.53887514
341.526	22.54782196
341.734	22.52254937
341.942	22.5247636
342.15	22.52320501
342.358	22.53024286
342.565	22.52252676
342.773	22.51368533
342.981	22.52815171
343.189	22.5313231
343.397	22.54509517
343.604	22.546898
343.812	22.54154302
344.02	22.52804694
344.228	22.53484063
344.435	22.52063565
344.643	22.51758401
344.851	22.52283145
345.058	22.53620595
345.266	22.53415583
345.474	22.53414917
345.681	22.52809515
345.889	22.50585725
346.097	22.51404299
346.304	22.49297177
346.512	22.46822328
346.72	22.45682206
346.927	22.4696259
347.135	22.45891417
347.342	22.43273577
347.55	22.41592104
347.758	22.39788614
347.965	22.38907579
348.173	22.37279436
348.38	22.39601907
348.588	22.3773191
348.795	22.36679762
349.003	22.36543156
349.21	22.33326235
349.418	22.32006674
349.625	22.31241114
349.833	22.30758211
350.04	22.29944051
350.247	22.28689506
350.455	22.28268359
350.662	22.28600791
350.87	22.27496459
351.077	22.27213114
351.284	22.25555558
351.492	22.24179017
351.699	22.22831885
351.906	22.23679822
352.114	22.22659666
352.321	22.23055254
352.528	22.2295613
352.736	22.2174961
352.943	22.22515598
353.15	22.22119828
353.358	22.21363232
353.565	22.23092349
353.772	22.2273545
353.979	22.23207673
354.187	22.22594048
354.394	22.23058981
354.601	22.23379287
354.808	22.2338062
355.015	22.23291059
355.223	22.22906768
355.43	22.21659941
355.637	22.20436297
355.844	22.21204465
356.051	22.2203972
356.258	22.2104139
356.465	22.19803734
356.673	22.16846533
356.88	22.16689267
357.087	22.15297914
357.294	22.1514295
357.501	22.1533223
357.708	22.15290986
357.915	22.13498478
358.122	22.10320628
358.329	22.0966956
358.536	22.08090855
358.743	22.07704271
358.95	22.0874955
359.157	22.08304043
359.364	22.07527929
359.571	22.09390146
359.778	22.08652857
359.985	22.08852063
360.192	22.06873424
360.399	22.06228755
360.606	22.04800898
360.812	22.04202003
361.019	22.03073074
361.226	22.00772676
361.433	22.00904393
361.64	21.98489831
361.847	21.97159855
362.054	21.96979011
362.26	21.96433675
362.467	21.96550057
362.674	21.93947541
362.881	21.94136935
363.088	21.93550058
363.294	21.91873585
363.501	21.90828032
363.708	21.8944888
363.915	21.87215594
364.121	21.86999882
364.328	21.87131481
364.535	21.87804056
364.741	21.87962454
364.948	21.87800888
365.155	21.87528715
365.361	21.88642745
365.568	21.90352194
365.775	21.89713768
365.981	21.88977531
366.188	21.88760781
366.395	21.86515331
366.601	21.87138392
366.808	21.88764189
367.014	21.90046803
367.221	21.89821344
367.427	21.88715286
367.634	21.88128896
367.84	21.86936988
368.047	21.86744369
368.254	21.86573848
368.46	21.86142446
368.667	21.85238062
368.873	21.84432019
369.079	21.83331471
369.286	21.81979102
369.492	21.80407921
369.699	21.79463679
369.905	21.77649933
370.112	21.77810767
370.318	21.76980958
370.524	21.75900287
370.731	21.7628535
370.937	21.75571364
371.144	21.73373573
371.35	21.72402685
371.556	21.70379721
371.763	21.70095316
371.969	21.69518126
372.175	21.6885833
372.381	21.67462472
372.588	21.66356625
372.794	21.66431134
373	21.65873167
373.206	21.65366114
373.413	21.6423448
373.619	21.64747505
373.825	21.65666433
374.031	21.64091907
374.238	21.63769343
374.444	21.60828842
374.65	21.61361694
374.856	21.61247471
375.062	21.60143904
375.268	21.58548799
375.475	21.575317
375.681	21.57572847
375.887	21.58164152
376.093	21.57235397
376.299	21.54807448
376.505	21.55502433
376.711	21.56539346
376.917	21.57193926
377.123	21.55576126
377.329	21.54184567
377.535	21.53007573
377.741	21.51031565
377.947	21.49480456
378.153	21.48391687
378.359	21.48790164
378.565	21.46628338
378.771	21.4663366
378.977	21.46070151
379.183	21.44668818
379.389	21.44851407
379.595	21.43719744
379.801	21.43183736
380.007	21.41426013
380.213	21.39540571
380.418	21.38593027
380.624	21.39271172
380.83	21.37845827
381.036	21.35355533
381.242	21.32383096
381.448	21.31448852
381.653	21.30385116
381.859	21.29236325
382.065	21.27992919
382.271	21.2796193
382.476	21.26750694
382.682	21.24333069
382.888	21.2437629
383.094	21.24243857
383.299	21.23209599
383.505	21.22547624
383.711	21.19163804
383.916	21.17250833
384.122	21.16300161
384.328	21.1550123
384.533	21.14952147
384.739	21.13828984
384.945	21.11792448
385.15	21.1093463
385.356	21.10555311
385.562	21.10704545
385.767	21.1045178
385.973	21.10094251
386.178	21.10154694
386.384	21.09126043
386.589	21.07223955
386.795	21.05753619
387	21.05728865
387.206	21.05781647
387.411	21.03801628
387.617	21.02676014
387.822	21.02222087
388.028	21.02636446
388.233	21.04162797
388.439	21.04075659
388.644	21.03687085
388.85	21.0281881
389.055	21.01815578
389.26	21.01432848
389.466	21.00009567
389.671	20.98887934
389.877	20.98017186
390.082	20.95285261
390.287	20.93117518
390.493	20.90789417
390.698	20.90793984
390.903	20.9064695
391.109	20.87567238
391.314	20.85313037
391.519	20.83073297
391.724	20.81547131
391.93	20.80561244
392.135	20.78380197
392.34	20.77772208
392.545	20.76204504
392.751	20.74058712
392.956	20.73370308
393.161	20.71069969
393.366	20.70081827
393.571	20.68209202
393.776	20.67573686
393.982	20.66748179
394.187	20.65442438
394.392	20.6431123
394.597	20.63608449
394.802	20.62554615
395.007	20.61275023
395.212	20.60622613
395.417	20.60927187
395.622	20.60793302
395.827	20.60216593
396.032	20.60901885
396.237	20.59253684
396.442	20.5922574
396.647	20.57134461
396.852	20.55661974
397.057	20.5428173
397.262	20.52829267
397.467	20.52571366
397.672	20.51998886
397.877	20.51546346
398.082	20.50306798
398.287	20.48824389
398.492	20.47812082
398.697	20.47256186
398.902	20.46865735
399.107	20.46452177
399.311	20.46554435
399.516	20.45547081
399.721	20.45424114
399.926	20.44627347
400.131	20.43338127
400.336	20.41650382
400.54	20.41275422
400.745	20.41057635
400.95	20.41157094
401.155	20.40709532
401.359	20.40574264
401.564	20.39930637
401.769	20.39653815
401.974	20.39430551
402.178	20.39084971
402.383	20.37949955
402.588	20.37825264
402.792	20.37847092
402.997	20.37531544
403.202	20.36415015
403.406	20.34989324
403.611	20.32789071
403.815	20.30881653
404.02	20.29652736
404.225	20.2842436
404.429	20.27962212
404.634	20.27496664
404.838	20.2626675
405.043	20.24593817
405.247	20.2243115
405.452	20.20690222
405.656	20.19385594
405.861	20.18018379
406.065	20.16744749
406.27	20.15209525
406.474	20.14271531
406.679	20.13545371
406.883	20.12187614
407.088	20.10879833
407.292	20.09661368
407.497	20.07883601
407.701	20.0630626
407.905	20.0606792
408.11	20.0560941
408.314	20.0374288
408.518	20.02203708
408.723	20.02143122
408.927	20.0067973
409.131	19.99680173
409.336	19.98185059
409.54	19.97728839
409.744	19.96616239
409.949	19.94605566
410.153	19.93761626
410.357	19.91961206
410.561	19.90848799
410.766	19.8946612
410.97	19.87278035
411.174	19.85712902
411.378	19.83797633
411.582	19.82244465
411.787	19.81781142
411.991	19.81584389
412.195	19.80161842
412.399	19.78569721
412.603	19.77943844
412.807	19.77002842
413.011	19.75965806
413.215	19.75414765
413.419	19.74632768
413.624	19.72548169
413.828	19.72133486
414.032	19.70982667
414.236	19.70185672
414.44	19.6887096
414.644	19.68015833
414.848	19.66159069
415.052	19.64996185
415.256	19.64842268
415.46	19.64617409
415.664	19.63578671
415.868	19.62649035
416.072	19.62257327
416.275	19.60891506
416.479	19.61348112
416.683	19.60592352
416.887	19.6053509
417.091	19.60041451
417.295	19.58374257
417.499	19.56373919
417.703	19.55300538
417.906	19.55521058
418.11	19.55003113
418.314	19.54812401
418.518	19.55250267
418.722	19.54889315
418.925	19.54221203
419.129	19.54301973
419.333	19.53959255
419.537	19.52454227
419.74	19.51481264
419.944	19.51236969
420.148	19.50022485
420.352	19.49165968
420.555	19.48715121
420.759	19.46791553
420.963	19.46085417
421.166	19.44251297
421.37	19.43141087
421.573	19.42230884
421.777	19.41562958
421.981	19.40702967
422.184	19.3961058
422.388	19.37816576
422.591	19.36745711
422.795	19.3512369
422.999	19.34492215
423.202	19.33915721
423.406	19.32995854
423.609	19.32546873
423.813	19.32317963
424.016	19.31340957
424.22	19.29935967
424.423	19.2956849
424.627	19.2888217
424.83	19.27025023
425.033	19.25164493
425.237	19.23545985
425.44	19.22179815
425.644	19.22019766
425.847	19.20242173
426.05	19.19969685
426.254	19.19443993
426.457	19.18078592
426.66	19.17892932
426.864	19.16491442
427.067	19.15350276
427.27	19.14235138
427.474	19.13351943
427.677	19.12711325
427.88	19.11125143
428.084	19.10310888
428.287	19.08778031
428.49	19.08207427
428.693	19.07341967
428.896	19.0512588
429.1	19.05419968
429.303	19.04956978
429.506	19.03338499
429.709	19.03821392
429.912	19.02644721
430.116	19.02108189
430.319	19.00946631
430.522	18.99176956
430.725	18.98938322
430.928	18.9748398
431.131	18.96526369
431.334	18.95313977
431.537	18.93766221
431.74	18.92917549
431.943	18.91440045
432.146	18.91185151
432.349	18.90699779
432.552	18.90244393
432.755	18.88920037
432.958	18.8676809
433.161	18.85751416
433.364	18.84426639
433.567	18.83839602
433.77	18.84544352
433.973	18.83072517
434.176	18.82532628
434.379	18.8194532
434.582	18.812548
434.785	18.7934756
434.988	18.78002993
435.19	18.76639
435.393	18.75740771
435.596	18.74717139
435.799	18.74412319
436.002	18.7276108
436.205	18.72264048
436.407	18.70274027
436.61	18.69377212
436.813	18.67702101
437.016	18.66821758
437.218	18.67056328
437.421	18.66145088
437.624	18.65124606
437.827	18.64052664
438.029	18.6266796
438.232	18.6126089
438.435	18.59398654
438.637	18.58869717
438.84	18.57174513
439.043	18.57419017
439.245	18.57044947
439.448	18.56300129
439.65	18.56256032
439.853	18.55610074
440.056	18.54459874
440.258	18.54697447
440.461	18.53124191
440.663	18.52294468
440.866	18.50597452
441.068	18.50501666
441.271	18.49797312
441.473	18.49623693
441.676	18.48939388
441.878	18.48739546
442.081	18.48348424
442.283	18.47659079
442.486	18.47502626
442.688	18.46688591
442.89	18.44962511
443.093	18.44346507
443.295	18.43258461
443.498	18.43221944
443.7	18.42571359
443.902	18.4127147
444.105	18.41297506
444.307	18.4026928
444.509	18.38746291
444.712	18.3855381
444.914	18.38162908
445.116	18.38151506
445.319	18.36918489
445.521	18.36311394
445.723	18.34261262
445.925	18.34620384
446.128	18.33792996
446.33	18.32394247
446.532	18.31431944
446.734	18.29881834
446.936	18.29550551
447.139	18.28358956
447.341	18.27311933
447.543	18.27292736
447.745	18.25721263
447.947	18.24951781
448.149	18.23949451
448.351	18.230361
448.553	18.21256157
448.755	18.20633708
448.958	18.19925259
449.16	18.19186559
449.362	18.17780495
449.564	18.16687105
449.766	18.14944188
449.968	18.14629899
450.17	18.13011474
450.372	18.11546773
450.574	18.10484633
450.776	18.09900859
450.978	18.0962599
451.179	18.09451829
451.381	18.10078092
451.583	18.09886991
451.785	18.09003413
451.987	18.07775626
452.189	18.07004472
452.391	18.05337361
452.593	18.03309053
452.795	18.03488088
452.996	18.01779776
453.198	17.9960652
453.4	17.97333542
453.602	17.95974421
453.804	17.95156744
454.005	17.94707687
454.207	17.94010571
454.409	17.93005732
454.611	17.92519636
454.812	17.90979088
455.014	17.89286977
455.216	17.88053797
455.417	17.8601577
455.619	17.83378025
455.821	17.81658631
456.022	17.79480278
456.224	17.79879507
456.426	17.78708192
456.627	17.79326883
456.829	17.78669536
457.031	17.77819743
457.232	17.77613806
457.434	17.77236941
457.635	17.77625002
457.837	17.76553886
458.038	17.76076478
458.24	17.75144285
458.441	17.74151083
458.643	17.73750811
458.844	17.7276019
459.046	17.72669006
459.247	17.72580673
459.449	17.71759762
459.65	17.71271402
459.852	17.7089663
460.053	17.70182842
460.254	17.69565573
460.456	17.67920641
460.657	17.66733688
460.859	17.65143177
461.06	17.64437658
461.261	17.64353648
461.463	17.63237778
461.664	17.62433892
461.865	17.60938609
462.066	17.60599433
462.268	17.60257278
462.469	17.59676847
462.67	17.5849143
462.872	17.56862758
463.073	17.55467435
463.274	17.54616768
463.475	17.52894584
463.676	17.51389469
463.878	17.50738542
464.079	17.49271022
464.28	17.47947182
464.481	17.47870439
464.682	17.46576653
464.883	17.4629181
465.085	17.45711697
465.286	17.4487081
465.487	17.42946527
465.688	17.42085999
465.889	17.41661288
466.09	17.41188976
466.291	17.4006174
466.492	17.38986633
466.693	17.37973948
466.894	17.37812061
467.095	17.37320342
467.296	17.36866562
467.497	17.36201857
467.698	17.35540144
467.899	17.36034156
468.1	17.34984341
468.301	17.35106994
468.502	17.35129562
468.703	17.33962093
468.903	17.33630512
469.104	17.33345397
469.305	17.32204403
469.506	17.31487837
469.707	17.31272949
469.908	17.3011477
470.109	17.29014672
470.309	17.28322403
470.51	17.27564647
470.711	17.26366581
470.912	17.26402511
471.112	17.25264739
471.313	17.24368913
471.514	17.23369506
471.715	17.22711328
471.915	17.22289153
472.116	17.21679074
472.317	17.21190611
472.517	17.20362806
472.718	17.19477567
472.919	17.19294731
473.119	17.18180858
473.32	17.16584119
473.521	17.15982588
473.721	17.15606115
473.922	17.14946852
474.122	17.15933189
474.323	17.1547456
474.523	17.15215503
474.724	17.15332766
474.925	17.1533784
475.125	17.1449516
475.326	17.14273631
475.526	17.13939477
475.727	17.13278884
475.927	17.13070802
476.127	17.13078803
476.328	17.12067152
476.528	17.11670128
476.729	17.11809425
476.929	17.117919
477.13	17.1087508
477.33	17.10523459
477.53	17.10701277
477.731	17.10888922
477.931	17.10183368
478.131	17.09860643
478.332	17.08348471
478.532	17.08375991
478.732	17.07806559
478.933	17.07429464
479.133	17.06751878
479.333	17.061206
479.533	17.05450886
479.734	17.04964769
479.934	17.04982423
480.134	17.04448033
480.334	17.03661079
480.534	17.02930864
480.735	17.02261693
480.935	17.01226966
481.135	17.01019373
481.335	17.00600633
481.535	17.00325626
481.735	16.99722557
481.935	16.98737728
482.136	16.98681404
482.336	16.98177828
482.536	16.97879431
482.736	16.96847975
482.936	16.96030276
483.136	16.94907131
483.336	16.93551504
483.536	16.92995336
483.736	16.92556451
483.936	16.91994782
484.136	16.9169906
484.336	16.91031797
484.536	16.90019209
484.736	16.89541197
484.936	16.89438422
485.135	16.8953112
485.335	16.89210907
485.535	16.89156297
485.735	16.88983251
485.935	16.88492017
486.135	16.87819213
486.335	16.86937871
486.534	16.8590211
486.734	16.85403743
486.934	16.84942258
487.134	16.84905619
487.334	16.83986694
487.533	16.84078754
487.733	16.83501919
487.933	16.82794317
488.133	16.82820804
488.332	16.82443185
488.532	16.82068746
488.732	16.82373347
488.931	16.81725762
489.131	16.81170763
489.331	16.80440128
489.53	16.7929424
489.73	16.77813401
489.93	16.76627578
490.129	16.75974812
490.329	16.75924674
490.528	16.75358844
490.728	16.75363342
490.928	16.74922008
491.127	16.74462915
491.327	16.73591868
491.526	16.73015958
491.726	16.72672791
491.925	16.71936899
492.125	16.7115496
492.324	16.70017468
492.524	16.68457145
492.723	16.67148811
492.922	16.66185116
493.122	16.65787381
493.321	16.64904293
493.521	16.63724326
493.72	16.62712287
493.919	16.62558139
494.119	16.62127081
494.318	16.60667649
494.517	16.59478454
494.717	16.58391721
494.916	16.56709959
495.115	16.55481387
495.315	16.53832545
495.514	16.52928162
495.713	16.52687427
495.912	16.51911406
496.112	16.5128788
496.311	16.50295312
496.51	16.48909418
496.709	16.4853129
496.908	16.4771925
497.108	16.47092211
497.307	16.45869949
497.506	16.4431792
497.705	16.43544134
497.904	16.43147062
498.103	16.41737902
498.302	16.40318766
498.501	16.39931176
498.701	16.39448911
498.9	16.38751607
499.099	16.38725395
499.298	16.37575504
499.497	16.36872813
499.696	16.35174937
499.895	16.34064011
500.094	16.32838778
500.293	16.31977034
500.492	16.30689736
500.691	16.30090162
500.89	16.28933774
501.088	16.28108297
501.287	16.26636489
501.486	16.25858725
501.685	16.25763448
501.884	16.25173539
502.083	16.24168676
502.282	16.23182103
502.481	16.22692275
502.679	16.21400318
502.878	16.19577168
503.077	16.18733679
503.276	16.17463886
503.475	16.16649423
503.673	16.15907873
503.872	16.16065052
504.071	16.15289138
504.27	16.14278461
504.468	16.13005663
504.667	16.12714152
504.866	16.12030396
505.064	16.11331408
505.263	16.10296099
505.462	16.09290877
505.66	16.08708272
505.859	16.07426743
506.058	16.06691318
506.256	16.05611041
506.455	16.05376122
506.653	16.03956947
506.852	16.03614262
507.05	16.03171336
507.249	16.01683668
507.448	16.0035396
507.646	15.99145104
507.845	15.98207324
508.043	15.96887041
508.242	15.95960467
508.44	15.94672366
508.638	15.93400368
508.837	15.92553856
509.035	15.91566418
509.234	15.90318322
509.432	15.89640896
509.631	15.88826484
509.829	15.87087719
510.027	15.85573282
510.226	15.83768052
510.424	15.82578691
510.622	15.81057653
510.821	15.80268837
511.019	15.78926984
511.217	15.78398221
511.415	15.77598395
511.614	15.76930132
511.812	15.75945348
512.01	15.74734876
512.208	15.74173041
512.407	15.72810746
512.605	15.72225437
512.803	15.71820259
513.001	15.70089648
513.199	15.68815336
513.398	15.6771311
513.596	15.66326192
513.794	15.65394186
513.992	15.64964803
514.19	15.64108087
514.388	15.63683599
514.586	15.61700684
514.784	15.60931514
514.982	15.60046186
515.18	15.59399584
515.378	15.58145793
515.576	15.5769766
515.774	15.56842277
515.972	15.56135094
516.17	15.55441536
516.368	15.54294626
516.566	15.54117989
516.764	15.52689696
516.962	15.51864905
517.16	15.51786897
517.358	15.50970207
517.556	15.49774018
517.754	15.49332539
517.952	15.48648846
518.149	15.47557018
518.347	15.4636214
518.545	15.45101039
518.743	15.45124705
518.941	15.44099801
519.138	15.43176328
519.336	15.41711833
519.534	15.40487737
519.732	15.39327816
519.929	15.38352037
520.127	15.37507945
520.325	15.36738042
520.523	15.35592445
520.72	15.34111367
520.918	15.33408957
521.116	15.32063269
521.313	15.30667885
521.511	15.29899426
521.709	15.29050473
521.906	15.28000325
522.104	15.26472201
522.301	15.25789697
522.499	15.25373863
522.696	15.24330984
522.894	15.23341794
523.092	15.22768984
523.289	15.21823756
523.487	15.21340744
523.684	15.20235824
523.882	15.19588761
524.079	15.18288166
524.276	15.17337775
524.474	15.16320831
524.671	15.14973538
524.869	15.14062551
525.066	15.12979586
525.264	15.11849531
525.461	15.10749325
525.658	15.09028639
525.856	15.08567277
526.053	15.07451743
526.25	15.06516609
526.448	15.05286512
526.645	15.04277016
526.842	15.03031135
527.039	15.016261
527.237	15.00363749
527.434	14.99337918
527.631	14.98394748
527.828	14.97003123
528.026	14.96092226
528.223	14.95342046
528.42	14.94489976
528.617	14.93524525
528.814	14.92636273
529.012	14.91252385
529.209	14.90153247
529.406	14.89411076
529.603	14.8841489
529.8	14.88002495
529.997	14.86342644
530.194	14.85357513
530.391	14.84484795
530.588	14.83320514
530.785	14.8190941
530.982	14.81265908
531.179	14.80666251
531.376	14.79929414
531.573	14.7865403
531.77	14.77353183
531.967	14.77151792
532.164	14.75658974
532.361	14.74714418
532.558	14.73471722
532.755	14.72472397
532.952	14.71799239
533.149	14.70776038
533.346	14.70017715
533.543	14.69158759
533.739	14.68352515
533.936	14.67314816
534.133	14.67245695
534.33	14.65757719
534.527	14.64685888
534.723	14.63895837
534.92	14.63498778
535.117	14.62118278
535.314	14.60952323
535.51	14.59578195
535.707	14.58875661
535.904	14.57655887
536.1	14.56881304
536.297	14.55815029
536.494	14.54547589
536.69	14.52560261
536.887	14.51429914
537.084	14.50180352
537.28	14.49352922
537.477	14.48201151
537.674	14.4670536
537.87	14.46009291
538.067	14.44399666
538.263	14.43219636
538.46	14.42402382
538.656	14.40902068
538.853	14.39663154
539.049	14.38429547
539.246	14.37675728
539.442	14.36553943
539.639	14.35159472
539.835	14.33759402
540.032	14.32741352
540.228	14.31228058
540.424	14.30117009
540.621	14.29201961
540.817	14.28998076
541.014	14.28058723
541.21	14.2705357
541.406	14.26567861
541.603	14.25935229
541.799	14.25272597
541.995	14.24349481
542.191	14.240574
542.388	14.22954496
542.584	14.22452875
542.78	14.22394298
542.976	14.2232533
543.173	14.21493799
543.369	14.20264347
543.565	14.19650887
543.761	14.19256847
543.957	14.1858028
544.154	14.17691751
544.35	14.17337099
544.546	14.16738616
544.742	14.1573569
544.938	14.1452598
545.134	14.13746887
545.33	14.13027452
545.526	14.11781259
545.722	14.10900849
545.919	14.10331394
546.115	14.0846725
546.311	14.07721521
546.507	14.06831628
546.703	14.0602356
546.899	14.05023759
547.095	14.03728178
547.29	14.02985455
547.486	14.02269448
547.682	14.01429621
547.878	14.00553687
548.074	14.00164515
548.27	13.99680319
548.466	13.98092307
548.662	13.96999806
548.858	13.96026448
549.053	13.95792526
549.249	13.95155414
549.445	13.9415647
549.641	13.93403928
549.837	13.92816761
550.032	13.91912401
550.228	13.92193979
550.424	13.91667442
550.62	13.90842752
550.815	13.90177109
551.011	13.89062805
551.207	13.88010167
551.402	13.87199567
551.598	13.86475101
551.794	13.85681661
551.989	13.84761209
552.185	13.84054876
552.381	13.83408729
552.576	13.82665073
552.772	13.81711394
552.967	13.81563758
553.163	13.80999547
553.359	13.8035112
553.554	13.79553958
553.75	13.79002721
553.945	13.77384343
554.141	13.76838516
554.336	13.75676738
554.532	13.74484506
554.727	13.73329414
554.922	13.72489796
555.118	13.72045004
555.313	13.71042698
555.509	13.69997294
555.704	13.69422033
555.899	13.68343245
556.095	13.67176771
556.29	13.65722269
556.486	13.64877133
556.681	13.64132931
556.876	13.64050068
557.071	13.62863557
557.267	13.61425251
557.462	13.59884395
557.657	13.59201029
557.853	13.58161847
558.048	13.5749736
558.243	13.55916665
558.438	13.55544618
558.633	13.54576191
558.829	13.54017902
559.024	13.53263834
559.219	13.52301245
559.414	13.5163524
559.609	13.50251009
559.804	13.49960353
559.999	13.49303725
560.194	13.48862002
560.39	13.47675121
560.585	13.4677157
560.78	13.45497987
560.975	13.44337244
561.17	13.43769146
561.365	13.43257832
561.56	13.42667584
561.755	13.41639872
561.95	13.41509084
562.145	13.41382813
562.34	13.4029212
562.535	13.39333426
562.729	13.39060205
562.924	13.38198376
563.119	13.37383852
563.314	13.3641509
563.509	13.35791911
563.704	13.35884943
563.899	13.3537635
564.093	13.34712014
564.288	13.33909906
564.483	13.34544922
564.678	13.33785731
564.873	13.34270146
565.067	13.33638875
565.262	13.32387592
565.457	13.31070895
565.652	13.31000536
565.846	13.30402031
566.041	13.29009174
566.236	13.27821149
566.43	13.28031831
566.625	13.27449988
566.82	13.26392658
567.014	13.2613861
567.209	13.25813341
567.404	13.25529257
567.598	13.24496357
567.793	13.23291407
567.987	13.21615898
568.182	13.20803804
568.376	13.20115031
568.571	13.18225202
568.765	13.17388799
568.96	13.16653923
569.154	13.16548643
569.349	13.15904073
569.543	13.16331561
569.738	13.15082769
569.932	13.14755493
570.127	13.14465831
570.321	13.14432615
570.515	13.13818625
570.71	13.12735256
570.904	13.12182073
571.098	13.10824128
571.293	13.09555185
571.487	13.07981135
571.681	13.07527527
571.876	13.07352694
572.07	13.06952419
572.264	13.06370228
572.458	13.06000882
572.653	13.06203786
572.847	13.06145494
573.041	13.0474297
573.235	13.03797952
573.43	13.03564603
573.624	13.02978206
573.818	13.02343946
574.012	13.01791942
574.206	13.01216184
574.4	13.00936488
574.594	12.99576664
574.788	12.99533841
574.983	12.98565136
575.177	12.98439865
575.371	12.97972237
575.565	12.98029571
575.759	12.97509802
575.953	12.96492456
576.147	12.96128887
576.341	12.95576185
576.535	12.95369992
576.729	12.94732061
576.923	12.93624015
577.117	12.93244686
577.31	12.92308004
577.504	12.91988026
577.698	12.91520613
577.892	12.91233183
578.086	12.90664383
578.28	12.89882744
578.474	12.88668898
578.668	12.89156661
578.861	12.88500638
579.055	12.88338466
579.249	12.87804528
579.443	12.8695664
579.636	12.85919896
579.83	12.85533077
580.024	12.85402361
580.218	12.84935578
580.411	12.84301113
580.605	12.83472098
580.799	12.82856039
580.992	12.81957248
581.186	12.82136945
581.38	12.82038044
581.573	12.81087402
581.767	12.79639098
581.961	12.78751514
582.154	12.77679176
582.348	12.76269722
582.541	12.75602651
582.735	12.74256359
582.928	12.73280006
583.122	12.7292817
583.315	12.72334182
583.509	12.7223191
583.702	12.72308503
583.896	12.71602828
584.089	12.70641284
584.283	12.69423763
584.476	12.68870881
584.67	12.68173432
584.863	12.66784609
585.056	12.65869425
585.25	12.64081016
585.443	12.62688453
585.636	12.61980613
585.83	12.61416558
586.023	12.6057984
586.216	12.59513637
586.41	12.59685938
586.603	12.59270758
586.796	12.58650478
586.989	12.58037459
587.183	12.56545909
587.376	12.55448118
587.569	12.53211286
587.762	12.52506822
587.955	12.51955039
588.149	12.51305478
588.342	12.50860922
588.535	12.50047906
588.728	12.49786198
588.921	12.49312647
589.114	12.48866744
589.307	12.48385229
589.5	12.47582283
589.693	12.47048566
589.886	12.47182949
590.08	12.4654207
590.273	12.45741336
590.466	12.44865185
590.659	12.43745573
590.852	12.42766776
591.044	12.41982089
591.237	12.41404227
591.43	12.41456124
591.623	12.42400231
591.816	12.41432287
592.009	12.40666524
592.202	12.40411878
592.395	12.39497884
592.588	12.39248395
592.781	12.37720234
592.973	12.37555166
593.166	12.37632338
593.359	12.37431538
593.552	12.37561876
593.745	12.36820442
593.937	12.35859247
594.13	12.35320791
594.323	12.35307327
594.515	12.35459502
594.708	12.35299671
594.901	12.35380436
595.094	12.34427113
595.286	12.34683868
595.479	12.34149356
595.672	12.33057961
595.864	12.33232733
596.057	12.33394952
596.249	12.32293617
596.442	12.31597807
596.635	12.30919998
596.827	12.30878451
597.02	12.30034483
597.212	12.29189385
597.405	12.28671016
597.597	12.27711698
597.79	12.26920057
597.982	12.25991282
598.175	12.2630951
598.367	12.25656299
598.559	12.24509739
598.752	12.23723202
598.944	12.23056174
599.137	12.23189034
599.329	12.2162639
599.521	12.20590254
599.714	12.19395774
599.906	12.18890737
600.098	12.16997226
600.291	12.16680855
600.483	12.16728091
600.675	12.16174447
600.868	12.16522544
601.06	12.16427917
601.252	12.15697648
601.444	12.14500475
601.637	12.14383765
601.829	12.14542242
602.021	12.14270361
602.213	12.13647192
602.405	12.13050006
602.597	12.12352703
602.789	12.11364552
602.982	12.10377468
603.174	12.08709683
603.366	12.08646617
603.558	12.07898916
603.75	12.08814193
603.942	12.08093457
604.134	12.08238337
604.326	12.08048586
604.518	12.0781294
604.71	12.07894047
604.902	12.06244604
605.094	12.05374573
605.286	12.05093267
605.478	12.05276682
605.67	12.04615552
605.862	12.04086602
606.054	12.04011736
606.246	12.03175919
606.437	12.03991891
606.629	12.0429749
606.821	12.04492459
607.013	12.04381253
607.205	12.04457932
607.397	12.0431236
607.588	12.04963967
607.78	12.04467372
607.972	12.04186809
608.164	12.03739874
608.355	12.03705137
608.547	12.02720211
608.739	12.01982766
608.93	12.0262258
609.122	12.02576855
609.314	12.02724916
609.505	12.02274996
609.697	12.0180717
609.889	12.01011858
610.08	12.00678879
610.272	11.99980328
610.463	11.99108969
610.655	11.97524121
610.847	11.96539153
611.038	11.96163763
611.23	11.96312159
611.421	11.95120574
611.613	11.94517628
611.804	11.93496069
611.996	11.93004287
612.187	11.92529415
612.379	11.92049254
612.57	11.9175489
612.761	11.91240859
612.953	11.89720636
613.144	11.88603684
613.336	11.87681401
613.527	11.87210941
613.718	11.86374242
613.91	11.86280203
614.101	11.85425733
614.292	11.85675562
614.483	11.85519412
614.675	11.85421442
614.866	11.85162313
615.057	11.84172717
615.248	11.8368279
615.44	11.83629824
615.631	11.82555158
615.822	11.82262953
616.013	11.81665591
616.204	11.81268388
616.396	11.80389763
616.587	11.78927666
616.778	11.78620231
616.969	11.78736205
617.16	11.79002732
617.351	11.78209999
617.542	11.78082367
617.733	11.78030004
617.924	11.77704268
618.115	11.76935338
618.306	11.75888727
618.497	11.74007349
618.688	11.73996457
618.879	11.75007947
619.07	11.75584213
619.261	11.75328097
619.452	11.7565265
619.643	11.7538776
619.834	11.74573613
620.025	11.74332956
620.216	11.73791913
620.407	11.72900381
620.597	11.73352373
620.788	11.73057062
620.979	11.72311655
621.17	11.71685495
621.361	11.71952657
621.551	11.70960098
621.742	11.7033841
621.933	11.69661303
622.124	11.69360663
622.314	11.68848951
622.505	11.69458045
622.696	11.680528
622.886	11.66010017
623.077	11.64476825
623.268	11.63895481
623.458	11.63251711
623.649	11.62409803
623.84	11.62081973
624.03	11.61494403
624.221	11.60521791
624.411	11.60395181
624.602	11.59636349
624.792	11.58906013
624.983	11.58211103
625.173	11.57684208
625.364	11.57320724
625.554	11.56743608
625.745	11.55899513
625.935	11.55373667
626.126	11.55052955
626.316	11.54200295
626.507	11.53469943
626.697	11.53948613
626.887	11.54469103
627.078	11.54982465
627.268	11.54094851
627.458	11.53944871
627.649	11.53246058
627.839	11.52735929
628.029	11.51645877
628.22	11.51412856
628.41	11.50848512
628.6	11.50603271
628.79	11.49834131
628.981	11.49521393
629.171	11.49138138
629.361	11.4904435
629.551	11.49160064
629.741	11.50087634
629.932	11.49721956
630.122	11.49700622
630.312	11.50525562
630.502	11.5009735
630.692	11.4915094
630.882	11.4856744
631.072	11.48095344
631.262	11.48093354
631.452	11.4728768
631.642	11.48065877
631.832	11.47934818
632.022	11.47348098
632.212	11.47274928
632.402	11.46082125
632.592	11.45841677
632.782	11.46195304
632.972	11.45838474
633.162	11.45703539
633.352	11.45183924
633.542	11.4426723
633.732	11.43588774
633.922	11.43643422
634.111	11.4285182
634.301	11.41290985
634.491	11.41547623
634.681	11.41633603
634.871	11.39926353
635.06	11.39104343
635.25	11.38076259
635.44	11.37192023
635.63	11.36414087
635.819	11.36646607
636.009	11.36897385
636.199	11.37545325
636.388	11.38495549
636.578	11.37878424
636.768	11.36708741
636.957	11.36956565
637.147	11.36610695
637.337	11.35831436
637.526	11.36082294
637.716	11.35168767
637.905	11.34344977
638.095	11.34209441
638.284	11.34265081
638.474	11.33235806
638.663	11.32375693
638.853	11.33322052
639.042	11.34071561
639.232	11.34004347
639.421	11.34335239
639.611	11.33853606
639.8	11.32504121
639.99	11.31756315
640.179	11.30126915
640.368	11.29516202
640.558	11.28887899
640.747	11.28505751
640.936	11.28323919
641.126	11.27412688
641.315	11.27456299
641.504	11.25830454
641.694	11.25590533
641.883	11.24534783
642.072	11.23520721
642.261	11.23036572
642.451	11.23629434
642.64	11.23101531
642.829	11.22343702
643.018	11.21130436
643.207	11.21689974
643.397	11.21793807
643.586	11.21900212
643.775	11.22561035
643.964	11.22102735
644.153	11.22297456
644.342	11.2256019
644.531	11.23175752
644.72	11.24271963
644.909	11.23009894
645.098	11.2228575
645.287	11.21194576
645.476	11.21590906
645.665	11.2131915
645.854	11.21686697
646.043	11.21763927
646.232	11.21679831
646.421	11.20544948
646.61	11.20488624
646.799	11.20236148
646.988	11.21013132
647.177	11.20027438
647.365	11.18716403
647.554	11.17703821
647.743	11.16801979
647.932	11.16935751
648.121	11.17419193
648.309	11.16400149
648.498	11.15765752
648.687	11.13784346
648.876	11.127233
649.064	11.12322321
649.253	11.12140342
649.442	11.12395683
649.63	11.11209065
649.819	11.10597729
650.008	11.10037115
650.196	11.10339901
650.385	11.10383127
650.574	11.10282703
650.762	11.11477882
650.951	11.10274651
651.139	11.10058049
651.328	11.09206185
651.516	11.09676554
651.705	11.09884287
651.893	11.10341466
652.082	11.1002911
652.27	11.09851017
652.459	11.09994428
652.647	11.10291185
652.836	11.11486857
653.024	11.12778404
653.213	11.12850565
653.401	11.12266061
653.589	11.12958415
653.778	11.13362198
653.966	11.1358949
654.154	11.12560604
654.343	11.11694058
654.531	11.11621026
654.719	11.09345592
654.908	11.09268393
655.096	11.09097878
655.284	11.09637142
655.472	11.09481711
655.661	11.08755973
655.849	11.09027888
656.037	11.07937543
656.225	11.07800152
656.413	11.07349337
656.601	11.07505237
656.79	11.06756107
656.978	11.0582587
657.166	11.05622455
657.354	11.05557036
657.542	11.05304934
657.73	11.03830893
657.918	11.03271565
658.106	11.0344443
658.294	11.03904622
658.482	11.03132808
658.67	11.03543546
658.858	11.02223106
659.046	11.02455218
659.234	11.02159902
659.422	11.01200166
659.61	11.01187789
659.798	11.00289626
659.986	11.0042271
660.173	11.00141791
660.361	10.99150761
660.549	10.98710536
660.737	10.99420373
660.925	10.97875394
661.113	10.97865432
661.3	10.97063612
661.488	10.96428166
661.676	10.96236388
661.864	10.95561285
662.051	10.9531031
662.239	10.94551012
662.427	10.94496548
662.614	10.94599228
662.802	10.95348458
662.99	10.9538545
663.177	10.9417178
663.365	10.94011687
663.553	10.93802495
663.74	10.92576456
663.928	10.92133971
664.115	10.91659297
664.303	10.91668445
664.49	10.91700883
664.678	10.91255809
664.866	10.92025318
665.053	10.90548042
665.24	10.91232848
665.428	10.92198011
665.615	10.92275344
665.803	10.93316212
665.99	10.93051251
666.178	10.93098636
666.365	10.93118741
666.552	10.9302269
666.74	10.92942231
666.927	10.91695063
667.114	10.93176937
667.302	10.92873006
667.489	10.92974299
667.676	10.92924986
667.864	10.92253537
668.051	10.91585114
668.238	10.91827012
668.425	10.91496648
668.613	10.9049432
668.8	10.90833453
668.987	10.91132284
669.174	10.90801715
669.361	10.90820066
669.548	10.91246083
669.736	10.90673373
669.923	10.89925566
670.11	10.9040849
670.297	10.90203512
670.484	10.89619656
670.671	10.88750357
670.858	10.8911567
671.045	10.8844764
671.232	10.88857114
671.419	10.88045297
671.606	10.87481176
671.793	10.87630354
671.98	10.87582391
672.167	10.86842463
672.354	10.85704938
672.541	10.85905642
672.728	10.84713717
672.915	10.83895243
673.101	10.83906363
673.288	10.82362541
673.475	10.82044082
673.662	10.80639753
673.849	10.80075099
674.035	10.79187696
674.222	10.78848388
674.409	10.77574328
674.596	10.77128028
674.783	10.76048443
674.969	10.75034188
675.156	10.74693658
675.343	10.74457662
675.529	10.75520527
675.716	10.74354372
675.903	10.7411562
676.089	10.7427272
676.276	10.73836253
676.462	10.73275975
676.649	10.73835938
676.836	10.74946421
677.022	10.74711873
677.209	10.74404423
677.395	10.73970002
677.582	10.74842627
677.768	10.74813613
677.955	10.73790584
678.141	10.73087872
678.328	10.73651604
678.514	10.72913541
678.701	10.72017313
678.887	10.71561033
679.073	10.70464153
679.26	10.69335142
679.446	10.68127675
679.632	10.67999309
679.819	10.68179689
680.005	10.6746737
680.191	10.68494677
680.378	10.6753174
680.564	10.66595825
680.75	10.64985514
680.936	10.63372059
681.123	10.62348467
681.309	10.6170292
681.495	10.59190688
681.681	10.58791891
681.867	10.57706206
682.054	10.5672733
682.24	10.54746187
682.426	10.5458332
682.612	10.53254632
682.798	10.51984659
682.984	10.50800934
683.17	10.49800189
683.356	10.48219484
683.542	10.46838359
683.728	10.45836079
683.914	10.43515202
684.1	10.40761876
684.286	10.40026111
684.472	10.38861705
684.658	10.3794193
684.844	10.36724408
685.03	10.35397628
685.216	10.33385874
685.402	10.3284735
685.588	10.31211552
685.774	10.29442517
685.96	10.28076116
686.145	10.28683579
686.331	10.27623265
686.517	10.26433107
686.703	10.24236685
686.889	10.22654733
687.074	10.20911973
687.26	10.20406589
687.446	10.19924149
687.631	10.17083428
687.817	10.1740844
688.003	10.17263612
688.189	10.14850759
688.374	10.13093493
688.56	10.11381096
688.745	10.08817144
688.931	10.06704924
689.117	10.06166205
689.302	10.05091981
689.488	10.03748788
689.673	10.02911985
689.859	10.02526717
690.044	9.99052515
690.23	9.97435207
690.415	9.96325949
690.601	9.95200597
690.786	9.94936451
690.972	9.94662551
691.157	9.91329814
691.343	9.89789037
691.528	9.89252167
691.713	9.87883518
691.899	9.86469336
692.084	9.86593905
692.269	9.8488509
692.455	9.83858771
692.64	9.82805205
692.825	9.82913062
693.011	9.81290562
693.196	9.80108804
693.381	9.78207288
693.566	9.78291712
693.752	9.76938356
693.937	9.75884891
694.122	9.73563699
694.307	9.73311048
694.492	9.72530593
694.678	9.70727291
694.863	9.69572914
695.048	9.68951048
695.233	9.67749739
695.418	9.65355943
695.603	9.6461769
695.788	9.61852358
695.973	9.59405975
696.158	9.58263634
696.343	9.56170801
696.528	9.56021372
696.713	9.53511556
696.898	9.51636232
697.083	9.49369179
697.268	9.47705218
697.453	9.45080479
697.638	9.41403122
697.823	9.40762359
698.008	9.40377728
698.192	9.37992679
698.377	9.36572206
698.562	9.35249736
698.747	9.32513253
698.932	9.31002437
699.117	9.28604017
699.301	9.27993895
699.486	9.2517073
699.671	9.23179093
699.856	9.21800453
700.04	9.19109471
700.225	9.17353366
700.41	9.14746013
700.594	9.12947563
700.779	9.11365652
700.964	9.09620512
701.148	9.08495953
701.333	9.06242744
701.517	9.05410618
701.702	9.0293507
701.887	9.01057171
702.071	8.98640609
702.256	8.96181662
702.44	8.93597727
702.625	8.93094081
702.809	8.90545576
702.994	8.89785182
703.178	8.88910103
703.362	8.86314781
703.547	8.86358024
703.731	8.84340357
703.916	8.83014158
704.1	8.81608942
704.284	8.78784097
704.469	8.77797658
704.653	8.75287936
704.837	8.74817681
705.022	8.7345305
705.206	8.70617554
705.39	8.69938694
705.575	8.680969
705.759	8.65070834
705.943	8.64017217
706.127	8.61475661
706.311	8.60027601
706.496	8.5617612
706.68	8.56200103
706.864	8.53421977
707.048	8.50831504
707.232	8.49162121
707.416	8.4636758
707.6	8.44682888
707.785	8.44013932
707.969	8.41472248
708.153	8.39690874
708.337	8.36764365
708.521	8.35564154
708.705	8.33773131
708.889	8.30391742
709.073	8.30136228
709.257	8.28133789
709.441	8.26917164
709.624	8.24814452
709.808	8.2303436
709.992	8.22917878
710.176	8.19813337
710.36	8.20228509
710.544	8.17140862
710.728	8.15045681
710.912	8.13137575
711.095	8.12449407
711.279	8.10210257
711.463	8.08321525
711.647	8.06453731
711.83	8.04721009
712.014	8.04773265
712.198	8.03061118
712.382	8.02023902
712.565	7.97606518
712.749	7.96252876
712.933	7.92955738
713.116	7.91859892
713.3	7.89872075
713.483	7.89351078
713.667	7.86893275
713.851	7.85404711
714.034	7.83481465
714.218	7.80827972
714.401	7.78138078
714.585	7.75688637
714.768	7.72737892
714.952	7.69014645
715.135	7.68054342
715.319	7.65993281
715.502	7.62821892
715.686	7.61990654
715.869	7.60327077
716.052	7.58446739
716.236	7.54454969
716.419	7.5452854
716.602	7.52329402
716.786	7.51376087
716.969	7.47985561
717.152	7.46102272
717.336	7.42925106
717.519	7.41007184
717.702	7.37557826
717.885	7.36872431
718.069	7.33023968
718.252	7.31641308
718.435	7.31473651
718.618	7.28265074
718.801	7.25661094
718.985	7.22237195
719.168	7.19320945
719.351	7.16445721
719.534	7.13222565
719.717	7.10521209
719.9	7.09391376
720.083	7.08849633
720.266	7.05847813
720.449	7.03768669
720.632	7.02359735
720.815	6.9986057
720.998	6.97032589
721.181	6.9602126
721.364	6.93560991
721.547	6.93169809
721.73	6.91541429
721.913	6.91129308
722.096	6.89004689
722.279	6.86452967
722.461	6.85967733
722.644	6.85710325
722.827	6.85333183
723.01	6.8403038
723.193	6.82301298
723.376	6.7996851
723.558	6.77334196
723.741	6.76059473
723.924	6.72594648
724.107	6.7200631
724.289	6.70624106
724.472	6.69313229
724.655	6.67052873
724.837	6.65172905
725.02	6.62101258
725.203	6.6053926
725.385	6.57250954
725.568	6.55319178
725.75	6.53695958
725.933	6.52605182
726.115	6.50793392
726.298	6.50573954
726.481	6.4930801
726.663	6.47087556
726.845	6.4580872
727.028	6.4500266
727.21	6.44948224
727.393	6.43851596
727.575	6.42119326
727.758	6.42203606
727.94	6.42055654
728.122	6.42023358
728.305	6.40474608
728.487	6.40978479
728.67	6.40786031
728.852	6.40035021
729.034	6.40712541
729.216	6.39967435
729.399	6.38789528
729.581	6.37968911
729.763	6.37523746
729.945	6.3608961
730.128	6.34886875
730.31	6.34228671
730.492	6.3282
730.674	6.31809195
730.856	6.31950459
731.039	6.30779752
731.221	6.30308349
731.403	6.30631528
731.585	6.29886477
731.767	6.28364021
731.949	6.25388719
732.131	6.25675585
732.313	6.23371292
732.495	6.23171166
732.677	6.24364132
732.859	6.22842685
733.041	6.22680854
733.223	6.21977734
733.405	6.20879074
733.587	6.19726996
733.769	6.20493939
733.951	6.19725209
734.132	6.20053619
734.314	6.19859164
734.496	6.19258006
734.678	6.18677089
734.86	6.17131554
735.042	6.15871048
735.223	6.13631976
735.405	6.13517169
735.587	6.12568692
735.769	6.14280991
735.95	6.12877166
736.132	6.1222529
736.314	6.10503561
736.495	6.08570743
736.677	6.08033087
736.859	6.08082872
737.04	6.07658164
737.222	6.07690646
737.403	6.07827987
737.585	6.05506439
737.767	6.05188424
737.948	6.02280501
738.13	6.0213026
738.311	6.02084262
738.493	6.00806953
738.674	6.00329935
738.856	5.99987401
739.037	5.99908264
739.219	5.9856032
739.4	5.97332238
739.581	5.96849085
739.763	5.9639976
739.944	5.95697624
740.125	5.9671226
740.307	5.96342833
740.488	5.96331359
740.669	5.94801799
740.851	5.94829785
741.032	5.94028649
741.213	5.92647834
741.395	5.93699205
741.576	5.9445202
741.757	5.95261016
741.938	5.94447793
742.119	5.93134663
742.301	5.93194935
742.482	5.93678264
742.663	5.93971663
742.844	5.92731922
743.025	5.92473643
743.206	5.91784406
743.387	5.89766047
743.568	5.89626276
743.749	5.90779433
743.93	5.89248196
744.111	5.88880956
744.292	5.87742932
744.473	5.87361314
744.654	5.85593983
744.835	5.85414036
745.016	5.84301999
745.197	5.83133787
745.378	5.80155639
745.559	5.79110035
745.74	5.79242096
745.921	5.79094963
746.102	5.77988304
746.282	5.78676876
746.463	5.76925169
746.644	5.77486917
746.825	5.77451168
747.006	5.78108474
747.186	5.78246033
747.367	5.75852654
747.548	5.74000755
747.728	5.74545211
747.909	5.7317986
748.09	5.73009871
748.27	5.73031573
748.451	5.71768947
748.632	5.71786826
748.812	5.72822407
748.993	5.72172536
749.173	5.7271246
749.354	5.72736052
749.535	5.71523639
749.715	5.70786827
749.896	5.69813072
750.076	5.68318952
750.257	5.68465711
750.437	5.69091084
750.618	5.6654498
750.798	5.65761641
750.978	5.65648875
751.159	5.667941
751.339	5.66889208
751.52	5.65989475
751.7	5.66784803
751.88	5.65622571
752.061	5.64702585
752.241	5.65759208
752.421	5.63060806
752.601	5.61634408
752.782	5.61093496
752.962	5.60777964
753.142	5.59305731
753.322	5.57576033
753.503	5.57449137
753.683	5.58848075
753.863	5.58964459
754.043	5.58901859
754.223	5.57619471
754.403	5.59601627
754.583	5.59590416
754.764	5.57775837
754.944	5.55766231
755.124	5.56241729
755.304	5.54650569
755.484	5.53877374
755.664	5.51376593
755.844	5.50317619
756.024	5.48525544
756.204	5.4734059
756.384	5.47026676
756.564	5.46082473
756.743	5.44582203
756.923	5.44527123
757.103	5.43925503
757.283	5.42560615
757.463	5.40736578
757.643	5.38448926
757.823	5.35183783
758.002	5.3302567
758.182	5.32542854
758.362	5.29685943
758.542	5.29446053
758.721	5.29058363
758.901	5.28680985
759.081	5.2561668
759.261	5.25259152
759.44	5.27101393
759.62	5.28515956
759.8	5.2823867
759.979	5.29705427
760.159	5.27926711
760.338	5.27828583
760.518	5.27176193
760.698	5.27951915
760.877	5.2904993
761.057	5.30372933
761.236	5.31094393
761.416	5.30945432
761.595	5.31912184
761.775	5.29434011
761.954	5.27539284
762.133	5.27817359
762.313	5.29237679
762.492	5.30485256
762.672	5.28345491
762.851	5.30823325
763.03	5.30384946
763.21	5.31146781
763.389	5.2922187
763.568	5.30322106
763.748	5.2986192
763.927	5.31612214
764.106	5.32626603
764.286	5.32795153
764.465	5.32310958
764.644	5.31520742
764.823	5.31238866
765.002	5.31116555
765.182	5.32043617
765.361	5.33088908
765.54	5.34264752
765.719	5.34089811
765.898	5.34453507
766.077	5.32811636
766.256	5.31702983
766.435	5.31964178
766.614	5.31517012
766.793	5.3240647
766.972	5.33452561
767.151	5.34055447
767.33	5.33742779
767.509	5.35176234
767.688	5.34474406
767.867	5.34648263
768.046	5.34141086
768.225	5.34565601
768.404	5.36754994
768.583	5.36216025
768.762	5.35265811
768.94	5.35900726
769.119	5.35812382
769.298	5.37440959
769.477	5.37658366
769.656	5.36932237
769.834	5.37596932
770.013	5.37012626
770.192	5.37556837
770.37	5.37392472
770.549	5.36786438
770.728	5.35657213
770.906	5.36011978
771.085	5.34651495
771.264	5.33069927
771.442	5.3314999
771.621	5.32279271
771.799	5.31891255
771.978	5.2999032
772.157	5.27570398
772.335	5.27267649
772.514	5.26557077
772.692	5.26325278
772.871	5.26285259
773.049	5.24211219
773.228	5.23449108
773.406	5.24991734
773.584	5.24049802
773.763	5.25255192
773.941	5.2577856
774.119	5.25304311
774.298	5.26565008
774.476	5.25433745
774.655	5.24515393
774.833	5.2762804
775.011	5.28844704
775.189	5.2894287
775.368	5.28341419
775.546	5.29368146
775.724	5.30656205
775.902	5.32605942
776.08	5.32577545
776.259	5.31736307
776.437	5.30092716
776.615	5.29580605
776.793	5.30793111
776.971	5.33164526
777.149	5.33081906
777.327	5.34349467
777.505	5.31768714
777.683	5.31722184
777.861	5.31854699
778.04	5.29996112
778.218	5.3011045
778.395	5.30794945
778.573	5.27824888
778.751	5.270645
778.929	5.26467173
779.107	5.27371757
779.285	5.28998668
779.463	5.28971252
779.641	5.26841483
779.819	5.26876736
779.997	5.30436803
780.174	5.30534569
780.352	5.29274698
780.53	5.2905553
780.708	5.28999728
780.886	5.27735817
781.063	5.26337
781.241	5.2939031
781.419	5.27654361
781.596	5.2849966
781.774	5.29282928
781.952	5.29594292
782.129	5.30617954
782.307	5.30783496
782.485	5.29862304
782.662	5.28327071
782.84	5.28386986
783.017	5.25988356
783.195	5.2438965
783.372	5.25425928
783.55	5.25397953
783.727	5.22261425
783.905	5.21182672
784.082	5.20606594
784.26	5.19845266
784.437	5.19256954
784.615	5.20314129
784.792	5.24300758
784.969	5.23024767
785.147	5.24523248
785.324	5.22625725
785.501	5.19480089
785.679	5.21540041
785.856	5.19176834
786.033	5.20930001
786.211	5.20906996
786.388	5.23998979
786.565	5.24560028
786.742	5.24184116
786.92	5.27088478
787.097	5.28471467
787.274	5.27324539
787.451	5.2753636
787.628	5.27721063
787.805	5.28823079
787.982	5.32009122
788.16	5.29174101
788.337	5.28250848
788.514	5.26458985
788.691	5.27557444
788.868	5.27449157
789.045	5.28155081
789.222	5.30533632
789.399	5.28869813
789.576	5.32016114
789.753	5.30905962
789.93	5.3283748
790.106	5.30695803
790.283	5.28562884
790.46	5.28897515
790.637	5.28077603
790.814	5.28432851
790.991	5.30613776
791.168	5.3334691
791.344	5.3445963
791.521	5.37328562
791.698	5.34089517
791.875	5.35444353
792.051	5.34861562
792.228	5.33533786
792.405	5.35508012
792.581	5.35963575
792.758	5.36283095
792.935	5.37807461
793.111	5.3763939
793.288	5.38563816
793.465	5.42170646
793.641	5.41857864
793.818	5.4396222
793.994	5.4678767
794.171	5.47831548
794.347	5.4921998
794.524	5.50011231
794.7	5.47587579
794.877	5.45910989
795.053	5.45341471
795.23	5.43968585
795.406	5.46239101
795.583	5.4891381
795.759	5.49006991
795.935	5.49313793
796.112	5.46939446
796.288	5.44767599
796.464	5.44961825
796.641	5.40850414
796.817	5.42336754
796.993	5.35532425
797.169	5.29627865
797.346	5.29378714
797.522	5.29712098
797.698	5.30922582
797.874	5.3192573
798.051	5.31710854
798.227	5.29047356
798.403	5.30150272
798.579	5.31608855
798.755	5.36006533
798.931	5.38021222
799.107	5.38245443
799.283	5.39652318
799.459	5.37852043
799.635	5.39986693
799.811	5.40799158
799.987	5.44854462
800.163	5.46631786
800.339	5.52160198
800.515	5.50295421
800.691	5.55664504
800.867	5.61034175
801.043	5.62153533
801.219	5.63866687
801.395	5.62063071
801.571	5.59760146
801.746	5.55303716
801.922	5.58843373
802.098	5.60449987
802.274	5.58875808
802.45	5.56633096
802.625	5.53750355
802.801	5.49157048
802.977	5.48173962
803.152	5.49897611
803.328	5.50158053
803.504	5.52787868
803.679	5.51398641
803.855	5.48658346
804.031	5.47611794
804.206	5.48861936
804.382	5.49711579
804.557	5.51594558
804.733	5.51086243
804.909	5.44945957
805.084	5.45079142
805.26	5.45890214
805.435	5.45857208
805.61	5.45626485
805.786	5.48042258
805.961	5.50627758
806.137	5.49467129
806.312	5.49565555
806.488	5.49914024
806.663	5.50016391
806.838	5.54812204
807.014	5.52896847
807.189	5.5039004
807.364	5.50891621
807.54	5.49496168
807.715	5.52221027
807.89	5.51064849
808.065	5.51297242
808.241	5.46000065
808.416	5.48291564
808.591	5.57420022
808.766	5.57592911
808.941	5.59369539
809.116	5.63338303
809.291	5.62649664
809.467	5.60275481
809.642	5.61102342
809.817	5.65016025
809.992	5.68155207
810.167	5.72950533
810.342	5.69377322
810.517	5.67270839
810.692	5.69307309
810.867	5.65608125
811.042	5.63812131
811.217	5.67489987
811.392	5.6362409
811.567	5.69385436
811.741	5.68925385
811.916	5.77189753
812.091	5.76869321
812.266	5.73319166
812.441	5.7873427
812.616	5.78314336
812.79	5.81460016
812.965	5.82713752
813.14	5.83489081
813.315	5.79088674
813.489	5.72387248
813.664	5.72333125
813.839	5.78874893
814.013	5.86832836
814.188	5.86626961
814.363	5.83517533
814.537	5.89903516
814.712	5.91811834
814.887	5.91423952
815.061	5.92611366
815.236	5.85681301
815.41	5.85498815
815.585	5.7920341
815.759	5.8037732
815.934	5.79400339
816.108	5.71764938
816.283	5.72964113
816.457	5.69703797
816.631	5.68071402
816.806	5.70889737
816.98	5.72965679
817.155	5.74270198
817.329	5.77855943
817.503	5.67278115
817.678	5.59082759
817.852	5.68830174
818.026	5.69239275
818.201	5.69477221
818.375	5.72544308
818.549	5.78252713
818.723	5.84242253
818.897	5.92193536
819.072	5.90971068
819.246	5.91455693
819.42	5.87537274
819.594	5.86603132
819.768	5.93567375
819.942	5.9675279
820.116	5.97457466
820.29	5.9993075
820.465	6.04136941
820.639	6.01220825
820.813	6.00593922
820.987	5.94515155
821.161	5.96033458
821.335	6.00700544
821.509	5.91601619
821.682	5.98023192
821.856	6.00421775
822.03	5.97708723
822.204	5.95940827
822.378	5.87001531
822.552	5.82523794
822.726	5.85420597
822.9	5.87655766
823.073	5.86043984
823.247	5.84082649
823.421	5.75084235
823.595	5.76557328
823.768	5.77553649
823.942	5.73386589
824.116	5.72446332
824.289	5.7482117
824.463	5.73335087
824.637	5.70425809
824.81	5.74383823
824.984	5.83106461
825.158	5.83182202
825.331	5.78290283
825.505	5.83063744
825.678	5.7432555
825.852	5.81203222
826.025	5.92237252
826.199	5.99191823
826.372	6.00744553
826.546	6.07682081
826.719	6.14151323
826.893	6.17062695
827.066	6.2410331
827.24	6.20424905
827.413	6.26248275
827.586	6.32568075
827.76	6.36495579
827.933	6.46763151
828.106	6.66644983
828.28	6.69569449
828.453	6.71181802
828.626	6.6777224
828.799	6.66938746
828.973	6.64365598
829.146	6.62616369
829.319	6.78378507
829.492	6.73654318
829.665	6.65302316
829.839	6.71268137
830.012	6.71199236
830.185	6.67481702
830.358	6.57637509
830.531	6.64237236
830.704	6.56907267
830.877	6.57562202
831.05	6.55027475
831.223	6.51239517
831.396	6.45873899
831.569	6.36674985
831.742	6.23662811
831.915	6.2798641
832.088	6.2163609
832.261	6.24481968
832.434	6.25892916
832.607	6.30608355
832.779	6.30469774
832.952	6.22704319
833.125	6.19194564
833.298	6.29344046
833.471	6.1529903
833.643	6.23180654
833.816	6.26737211
833.989	6.42750827
834.162	6.40068007
834.334	6.51773855
834.507	6.60436137
834.68	6.58810291
834.852	6.56319915
835.025	6.52702047
835.198	6.53187563
835.37	6.5534389
835.543	6.58881718
835.715	6.6693278
835.888	6.5784001
836.061	6.68996846
836.233	6.65898424
836.406	6.59261703
836.578	6.69885702
836.751	6.72674206
836.923	6.67090339
837.095	6.80155888
837.268	6.65531475
837.44	6.58324334
837.613	6.52890971
837.785	6.51356858
837.957	6.39324246
838.13	6.24092224
838.302	6.36829526
838.474	6.44188987
838.647	6.51122931
838.819	6.53934524
838.991	6.57059217
839.163	6.56674319
839.336	6.60800595
839.508	6.72259574
839.68	6.47746888
839.852	6.6137889
840.024	6.64399849
840.196	6.50332117
840.368	6.53089098
840.541	6.47909677
840.713	6.4463945
840.885	6.60760183
841.057	6.69677013
841.229	6.80538176
841.401	6.74793415
841.573	6.88547251
841.745	6.92783004
841.917	6.91475323
842.089	6.92121308
842.261	6.911127
842.432	6.90787123
842.604	6.95721676
842.776	7.03293508
842.948	6.99768196
843.12	6.86090711
843.292	7.11692741
843.464	7.11178699
843.635	7.1556771
843.807	7.35948956
843.979	7.41586761
844.151	7.36410407
844.322	7.26984573
844.494	7.08647985
844.666	6.9266025
844.837	6.73698604
845.009	7.00429619
845.181	7.02068312
845.352	7.02129975
845.524	6.74921097
845.695	6.71911228
845.867	6.61003789
846.039	6.62509026
846.21	6.67825296
846.382	6.50050639
846.553	6.57794954
846.725	6.70934615
846.896	6.62226169
847.068	6.54423428
847.239	6.42538073
847.41	6.49516976
847.582	6.43929324
847.753	6.5760272
847.925	6.65604047
848.096	6.87732069
848.267	7.13395187
848.439	7.17199478
848.61	6.97449669
848.781	7.02136846
848.952	7.07371262
849.124	7.40373765
849.295	7.30803068
849.466	7.25527652
849.637	7.24219709
849.808	7.03107023
849.98	7.28066313
850.151	7.10166456
850.322	7.14912239
850.493	7.16155746
850.664	7.16226101
850.835	7.21395531
851.006	6.76733107
851.177	6.84069055
851.348	6.72707584
851.519	7.04959024
851.69	6.82332984
851.861	6.87279948
852.032	6.71700567
852.203	6.86782779
852.374	6.71440844
852.545	6.59161955
852.716	6.45298632
852.887	6.49700837
853.057	6.57372389
853.228	6.59028494
853.399	6.81915055
853.57	6.77238998
853.741	6.98814162
853.911	6.88429904
854.082	6.86097011
854.253	6.97017223
854.424	7.00414938
854.594	7.51639925
854.765	7.49753986
854.936	7.47310144
855.106	7.0843357
855.277	7.31635355
855.447	7.03104159
855.618	7.48001634
855.789	7.37946315
855.959	7.5175854
856.13	7.78025844
856.3	7.98788719
856.471	8.03120679
856.641	8.10734705
856.812	7.88918304
856.982	7.75352461
857.153	7.673077
857.323	7.63640853
857.493	7.58722469
857.664	7.44073339
857.834	7.25410467
858.004	6.98511304
858.175	6.80375249
858.345	6.72601294
858.515	6.8954069
858.686	7.0418925
858.856	6.85121599
859.026	6.69634514
859.196	6.50669779
859.367	6.40774108
859.537	6.1718065
859.707	6.05125446
859.877	6.08104972
860.047	6.09625724
860.217	6.26437724
860.387	6.48500986
860.558	6.54259474
860.728	6.53798223
860.898	6.54157965
861.068	6.5785632
861.238	6.69337497
861.408	6.98383671
861.578	7.32479955
861.748	6.9195328
861.918	6.8062857
862.088	6.92388793
862.257	6.57605495
862.427	7.05148133
862.597	7.40234892
862.767	7.31671216
862.937	7.50680785
863.107	7.74382412
863.277	7.79699171
863.446	7.17941246
863.616	7.33168024
863.786	7.36212104
863.956	7.36629227
864.125	7.18944031
864.295	7.2340885
864.465	7.25051125
864.634	7.05280183
864.804	7.24794249
864.974	7.09077061
865.143	6.97343358
865.313	7.35857796
865.482	7.81795621
865.652	7.55380667
865.822	7.87972402
865.991	7.57763032
866.161	7.39560494
866.33	7.4578881
866.5	7.38011098
866.669	7.41857351
866.838	7.02271096
867.008	7.59788723
867.177	7.19860116
867.347	6.80988993
867.516	6.8733039
867.685	7.51008812
867.855	7.43072358
868.024	7.18830068
868.193	7.09480807
868.363	7.24685559
868.532	6.97725516
868.701	7.0747159
868.87	6.58454722
869.04	6.66201106
869.209	6.45739759
869.378	6.06164589
869.547	5.76744186
869.716	6.11107709
869.885	6.33225354
870.055	6.68659576
870.224	6.34057483
870.393	6.648655
870.562	6.35211843
870.731	6.75481539
870.9	7.14436772
871.069	7.05724333
871.238	6.13362334
871.407	5.76233934
871.576	5.82501628
871.745	6.06001273
871.914	5.31270948
872.083	5.81154425
872.251	5.93793545
872.42	5.90517552
872.589	5.08960499
872.758	5.31958982
872.927	5.77530878
873.096	6.74824682
873.264	6.52536007
873.433	6.8915424
873.602	6.71511401
873.771	7.17154653
873.939	7.29927007
874.108	7.9625612
874.277	7.87002362
874.445	7.73067042
874.614	8.30566719
874.783	8.70931801
874.951	8.80306317
875.12	9.09145327
875.288	9.80931008
875.457	10.36125686
875.625	10.03564036
875.794	10.27319684
875.962	10.81142311
876.131	11.76203279
876.299	12.34449398
876.468	11.26095666
876.636	10.8953964
876.805	10.11771856
876.973	8.98722811
877.141	8.95144454
877.31	8.70910399
877.478	8.41277506
877.647	6.96908441
877.815	6.3630799
877.983	5.25678966
878.151	5.83629473
878.32	5.91276204
878.488	6.01674514
878.656	6.64691133
878.824	6.51468802
878.992	6.87594354
879.161	7.55243878
879.329	6.60438913
879.497	6.24909637
879.665	5.10047642
879.833	5.10141669
880.001	5.51216507
880.169	4.89349162
880.337	6.36598504
880.505	6.66768775
880.673	7.03819402
880.841	6.49908032
881.009	7.36007907
881.177	7.73913504
881.345	7.24754968
881.513	9.93447626
881.681	8.19133912
881.849	8.1014624
882.017	8.98947564
882.185	9.51341176
882.352	8.79931226
882.52	8.60635886
882.688	6.94474265
882.856	8.20389022
883.024	9.31291965
883.191	9.39271577
883.359	7.96542143
883.527	9.07291254
883.694	8.48912108
883.862	7.87712193
884.03	8.16544991
884.197	5.98161192
884.365	6.96491343
884.533	7.23128053
884.7	8.21732362
884.868	8.72628364
885.035	7.99854324
885.203	10.7382854
885.37	10.72828685
885.538	10.20396058
885.705	8.13832979
885.873	8.31821489
886.04	8.28472364
886.208	9.94981888
886.375	9.22338096
886.542	8.50893606
886.71	9.14132079
886.877	11.14366013
