Data from carapace1_Reflection_09-33-07-808.txt Node
Date: Wed Dec 06 09:33:07 AEST 2023
User: uqkchene_local
Spectrometer: USB4E02642
Trigger mode: 4
Integration Time (sec): 1.700000E-2
Scans to average: 10
Electric dark correction enabled: true
Nonlinearity correction enabled: false
Boxcar width: 10
XAxis mode: Wavelengths
Number of Pixels in Spectrum: 3648
>>>>>Begin Spectral Data<<<<<
179.217	118.57988166
179.432	121.7877095
179.647	118.60718172
179.862	181.71428571
180.077	173.89277389
180.293	203.81679389
180.508	813.74045801
180.723	-249.24623116
180.938	17.38089538
181.153	24.55647878
181.368	26.00283717
181.583	27.09980086
181.798	27.7783623
182.013	28.3654639
182.228	28.61463563
182.443	28.6703195
182.658	28.67786253
182.873	28.96457827
183.088	28.71419136
183.303	28.61116199
183.518	28.40632624
183.733	28.1291158
183.948	28.30788334
184.162	28.29650059
184.377	28.26382199
184.592	28.23478178
184.807	28.20730396
185.022	28.23316038
185.237	28.39029504
185.452	28.50956157
185.667	28.55991517
185.882	28.60406922
186.096	28.60715351
186.311	28.58173286
186.526	28.40412561
186.741	28.26595011
186.956	28.22554722
187.17	28.26081246
187.385	28.19461426
187.6	28.21245464
187.815	28.29288789
188.03	28.32801883
188.244	28.34098268
188.459	28.2774318
188.674	28.3438356
188.889	28.3237844
189.103	28.35608206
189.318	28.38686582
189.533	28.40685964
189.747	28.29879003
189.962	28.32654225
190.177	28.2532524
190.391	28.21597252
190.606	28.27013966
190.821	28.28242705
191.035	28.38400019
191.25	28.48452224
191.465	28.40663417
191.679	28.38488096
191.894	28.41752832
192.109	28.58693505
192.323	28.67664202
192.538	28.65906732
192.752	28.76416375
192.967	28.75805827
193.181	28.69078286
193.396	28.737763
193.611	28.84938274
193.825	28.94021497
194.04	28.82312337
194.254	28.93639754
194.469	28.78203392
194.683	28.89533632
194.898	28.96705716
195.112	29.05627787
195.327	29.02434659
195.541	29.08661544
195.756	29.19621773
195.97	29.34976361
196.184	29.38197191
196.399	29.42265025
196.613	29.36265542
196.828	29.2856237
197.042	29.32354725
197.257	29.30153521
197.471	29.27321002
197.685	29.41588029
197.9	29.50391493
198.114	29.49641544
198.328	29.49089111
198.543	29.59823896
198.757	29.4577854
198.971	29.56480633
199.186	29.59232512
199.4	29.63684269
199.614	29.37163153
199.829	29.39825963
200.043	29.45477092
200.257	29.28946591
200.471	29.23722519
200.686	29.36909981
200.9	29.28697395
201.114	29.44000062
201.328	29.46314366
201.543	29.49018129
201.757	29.5145923
201.971	29.55410135
202.185	29.54665804
202.399	29.5914271
202.614	29.61904999
202.828	29.68179857
203.042	29.66693184
203.256	29.80313627
203.47	29.68160691
203.684	29.7259643
203.899	29.70220471
204.113	29.93120387
204.327	29.9228646
204.541	29.89371947
204.755	29.96326239
204.969	30.02429187
205.183	30.02885514
205.397	30.04049928
205.611	29.90917339
205.825	29.89510656
206.039	30.03247342
206.253	30.1030645
206.467	30.10308492
206.681	30.12842167
206.895	29.99894947
207.109	30.02522374
207.323	30.0068973
207.537	30.17474339
207.751	30.17835006
207.965	30.42596659
208.179	30.38106838
208.393	30.26001387
208.607	30.31258048
208.821	30.38574015
209.035	30.39959622
209.249	30.51154368
209.463	30.62742123
209.677	30.56229344
209.891	30.67921201
210.104	30.72305865
210.318	30.79641545
210.532	30.71854307
210.746	30.78446659
210.96	30.8483025
211.174	30.84973568
211.387	30.96839113
211.601	30.87462603
211.815	30.95243097
212.029	30.9790649
212.243	30.97739531
212.456	30.96860827
212.67	31.02414537
212.884	31.22954562
213.098	31.23655451
213.311	31.31044696
213.525	31.40665822
213.739	31.4370244
213.953	31.46758632
214.166	31.62002858
214.38	31.69422317
214.594	31.75811012
214.807	31.74684078
215.021	31.73634879
215.235	31.78282243
215.448	31.82367626
215.662	31.86663821
215.876	31.74857745
216.089	31.83970295
216.303	31.9909545
216.516	32.01242693
216.73	32.1435104
216.944	32.13432396
217.157	32.23383542
217.371	32.2110385
217.584	32.16243192
217.798	32.3429002
218.011	32.27265435
218.225	32.45261754
218.439	32.48061431
218.652	32.50310491
218.866	32.55920004
219.079	32.6054925
219.293	32.66018314
219.506	32.71628171
219.719	32.74383677
219.933	32.79212436
220.146	32.79975418
220.36	33.04319563
220.573	33.1641921
220.787	33.1040807
221	33.15277953
221.214	33.04689456
221.427	33.18846751
221.64	33.19399342
221.854	33.17952441
222.067	33.44852734
222.28	33.40027099
222.494	33.64289394
222.707	33.58115781
222.92	33.65328628
223.134	33.67377033
223.347	33.68845424
223.56	33.86516383
223.774	33.96921076
223.987	34.10947368
224.2	34.20653201
224.414	34.4298517
224.627	34.53088989
224.84	34.58124503
225.053	34.74669225
225.267	34.79687835
225.48	35.04937624
225.693	35.28784418
225.906	35.14780588
226.119	35.34678775
226.333	35.58108021
226.546	35.66871254
226.759	35.90766901
226.972	35.85662984
227.185	35.94088122
227.398	36.09612536
227.612	36.19532343
227.825	36.3465989
228.038	36.35186898
228.251	36.51127937
228.464	36.6273071
228.677	36.77887768
228.89	36.77188288
229.103	36.86299648
229.316	36.94136468
229.529	36.94999501
229.743	37.05484104
229.956	36.97389201
230.169	37.13136808
230.382	37.37247468
230.595	37.38966779
230.808	37.31741195
231.021	37.22473676
231.234	37.20579521
231.447	37.57019551
231.66	37.68553896
231.872	37.73047853
232.085	37.74704376
232.298	37.87448885
232.511	38.04701642
232.724	38.03778196
232.937	38.11096055
233.15	38.13845792
233.363	38.1305506
233.576	38.23097808
233.789	38.25901098
234.002	38.32768084
234.214	38.32454336
234.427	38.42783142
234.64	38.41987666
234.853	38.54620687
235.066	38.62300821
235.279	38.78412899
235.491	38.89215401
235.704	38.8947028
235.917	38.76225561
236.13	38.75805075
236.342	38.62319056
236.555	38.50242187
236.768	38.58221113
236.981	38.51993272
237.193	38.66984689
237.406	38.61392995
237.619	38.53544667
237.832	38.57629224
238.044	38.74572708
238.257	38.8631975
238.47	38.93393711
238.682	39.19374674
238.895	39.21011265
239.108	39.12489371
239.32	39.03958618
239.533	38.9057401
239.746	38.9575528
239.958	38.95068414
240.171	38.99324578
240.383	39.05353643
240.596	39.15403517
240.808	39.25471502
241.021	39.4835784
241.234	39.33809911
241.446	39.44774508
241.659	39.48292429
241.871	39.57103021
242.084	39.71307778
242.296	39.75031479
242.509	39.88506958
242.721	39.92913563
242.934	39.85991887
243.146	39.8109413
243.359	39.83994038
243.571	39.92743005
243.784	40.01532405
243.996	40.11394577
244.208	40.07425076
244.421	40.10830246
244.633	40.2311607
244.846	40.25930086
245.058	40.30236276
245.27	40.44260471
245.483	40.48410453
245.695	40.4989548
245.907	40.58095382
246.12	40.58930021
246.332	40.62391137
246.544	40.68073108
246.757	40.80993052
246.969	40.59442955
247.181	40.51734768
247.394	40.54766903
247.606	40.57297418
247.818	40.667404
248.03	40.82145495
248.243	40.87144102
248.455	41.02289165
248.667	41.15027295
248.879	41.25445716
249.092	41.25914802
249.304	41.18832496
249.516	41.12220479
249.728	41.06194475
249.94	41.07439606
250.153	41.24232283
250.365	41.15123484
250.577	41.15422588
250.789	41.17190101
251.001	41.30721435
251.213	41.36656426
251.425	41.43068237
251.637	41.66900696
251.85	41.78141214
252.062	41.76180406
252.274	41.68076786
252.486	41.6042645
252.698	41.80166006
252.91	41.66234772
253.122	41.75470767
253.334	41.70548176
253.546	41.76145813
253.758	41.89347584
253.97	42.00125401
254.182	42.15628678
254.394	42.20656185
254.606	42.26757645
254.818	42.28019877
255.03	42.35084609
255.242	42.34228961
255.454	42.41397189
255.666	42.57750917
255.877	42.59241715
256.089	42.48504012
256.301	42.49420497
256.513	42.55273868
256.725	42.67133858
256.937	42.78340677
257.149	42.78052764
257.361	42.98493475
257.572	42.94394516
257.784	42.98032978
257.996	42.94133528
258.208	42.92622759
258.42	42.90365532
258.631	42.84479782
258.843	42.83616965
259.055	42.88170132
259.267	42.95050275
259.479	42.9831254
259.69	42.99869544
259.902	43.08146002
260.114	42.95534624
260.325	43.00702975
260.537	42.97412654
260.749	43.01300989
260.961	43.07742932
261.172	43.14207006
261.384	43.1033768
261.596	42.97884175
261.807	42.90479563
262.019	42.94371646
262.23	42.97115012
262.442	43.10798515
262.654	43.17902016
262.865	43.23101954
263.077	43.07005899
263.288	43.16344313
263.5	43.17330596
263.712	43.15150713
263.923	43.08130133
264.135	43.28643397
264.346	42.98637893
264.558	42.93709511
264.769	42.95265516
264.981	42.97489833
265.192	43.01278123
265.404	42.98645919
265.615	42.97438781
265.827	42.93323395
266.038	42.96664753
266.25	42.95293592
266.461	42.97300017
266.673	43.11016495
266.884	43.04808936
267.095	43.04915971
267.307	42.90036598
267.518	43.03276143
267.73	43.06411437
267.941	42.97603552
268.152	43.019479
268.364	42.97509861
268.575	42.851476
268.786	42.83926303
268.998	42.92718635
269.209	42.92923566
269.42	42.9029259
269.632	42.86993321
269.843	42.78676597
270.054	42.6111338
270.265	42.60774616
270.477	42.60632057
270.688	42.50012421
270.899	42.48408356
271.11	42.39335619
271.322	42.30235098
271.533	42.11775505
271.744	42.21789281
271.955	42.13606677
272.166	42.07589346
272.378	41.98865211
272.589	42.00392337
272.8	42.05917147
273.011	41.99563009
273.222	42.0317996
273.433	41.89213738
273.644	41.82756883
273.856	41.67869594
274.067	41.60586156
274.278	41.58050445
274.489	41.46623213
274.7	41.42199077
274.911	41.25930535
275.122	41.38908701
275.333	41.30668735
275.544	41.11294818
275.755	41.03817492
275.966	40.96930295
276.177	40.84027684
276.388	40.79677725
276.599	40.62670247
276.81	40.5805367
277.021	40.39396493
277.232	40.18690124
277.443	39.97302619
277.654	39.92257004
277.865	39.7937562
278.076	39.53859233
278.287	39.53224479
278.497	39.42156359
278.708	39.23846525
278.919	39.19569517
279.13	38.97415179
279.341	38.85798026
279.552	38.57615182
279.763	38.33121682
279.973	38.23300541
280.184	37.9311467
280.395	37.85178918
280.606	37.65030218
280.817	37.36522584
281.027	37.12715629
281.238	36.87206187
281.449	36.5955199
281.66	36.34927374
281.87	36.24249125
282.081	35.93180677
282.292	35.78237788
282.503	35.64575733
282.713	35.28055741
282.924	34.90778423
283.135	34.66580201
283.345	34.4112522
283.556	34.22749372
283.767	34.04741968
283.977	33.80536246
284.188	33.50866959
284.399	33.21658656
284.609	33.09711439
284.82	32.77567335
285.03	32.67584024
285.241	32.50669519
285.451	32.36434783
285.662	32.15117578
285.873	32.0534163
286.083	31.85955035
286.294	31.6784745
286.504	31.51120521
286.715	31.19257585
286.925	31.10696491
287.136	31.0663834
287.346	31.0126697
287.557	30.92252512
287.767	30.78519566
287.978	30.75227236
288.188	30.6434169
288.399	30.57093985
288.609	30.58804208
288.819	30.47047954
289.03	30.47495069
289.24	30.3531409
289.451	30.36296589
289.661	30.39358636
289.871	30.35115865
290.082	30.30144314
290.292	30.21869764
290.502	30.31539044
290.713	30.23388253
290.923	30.15121718
291.133	30.23890108
291.344	30.03227721
291.554	30.03921149
291.764	29.96374165
291.974	29.96890066
292.185	29.92826598
292.395	29.74547388
292.605	29.66245464
292.815	29.51869981
293.026	29.33334184
293.236	29.36605655
293.446	29.13380472
293.656	29.15438049
293.866	28.94742195
294.077	28.76265003
294.287	28.51688616
294.497	28.44443215
294.707	28.25212706
294.917	28.03874026
295.127	27.78600025
295.337	27.68778889
295.548	27.48137021
295.758	27.35700732
295.968	27.07881916
296.178	26.86073123
296.388	26.62285543
296.598	26.44148175
296.808	26.28671295
297.018	25.94747904
297.228	25.74310518
297.438	25.50114676
297.648	25.19237683
297.858	25.00750046
298.068	24.63207253
298.278	24.33578518
298.488	24.15608601
298.698	23.93631024
298.908	23.64384397
299.118	23.38688919
299.328	23.0330024
299.538	22.79274771
299.748	22.49243269
299.957	22.19841445
300.167	21.8767709
300.377	21.58107847
300.587	21.25320684
300.797	20.94087766
301.007	20.62217777
301.217	20.31677384
301.426	20.09444786
301.636	19.80270731
301.846	19.56927499
302.056	19.32060442
302.266	19.00936118
302.475	18.79134177
302.685	18.50871294
302.895	18.15404908
303.105	17.88657798
303.314	17.66745552
303.524	17.37241419
303.734	17.17577704
303.944	16.89152993
304.153	16.61844876
304.363	16.31993895
304.573	16.09801857
304.782	15.88100696
304.992	15.7197515
305.202	15.46723764
305.411	15.29197393
305.621	15.04338901
305.831	14.85698082
306.04	14.6636694
306.25	14.48059794
306.459	14.27229854
306.669	14.09357498
306.878	13.92030023
307.088	13.74014691
307.298	13.57531834
307.507	13.41839741
307.717	13.2352773
307.926	13.09164084
308.136	12.95966146
308.345	12.86617738
308.555	12.76075836
308.764	12.64252245
308.974	12.50687502
309.183	12.37291234
309.392	12.23508339
309.602	12.13202877
309.811	11.99920018
310.021	11.85216428
310.23	11.72640176
310.44	11.59481225
310.649	11.49250624
310.858	11.38929777
311.068	11.28136419
311.277	11.18269368
311.486	11.09670744
311.696	10.99646366
311.905	10.92498084
312.114	10.83287417
312.324	10.77240692
312.533	10.66545555
312.742	10.57423719
312.952	10.462627
313.161	10.40389777
313.37	10.31826379
313.579	10.25755601
313.789	10.16487963
313.998	10.09657096
314.207	10.05556603
314.416	10.01143064
314.625	9.95405137
314.835	9.90025287
315.044	9.83466648
315.253	9.76614747
315.462	9.69376436
315.671	9.62438334
315.88	9.54826731
316.09	9.49538227
316.299	9.41202692
316.508	9.34367602
316.717	9.29657229
316.926	9.23572968
317.135	9.18550244
317.344	9.14144814
317.553	9.09035013
317.762	9.03947749
317.971	8.99094511
318.18	8.96062084
318.389	8.93455641
318.598	8.88179367
318.807	8.87294035
319.016	8.81570156
319.225	8.77942157
319.434	8.71163174
319.643	8.65456774
319.852	8.60094001
320.061	8.52235702
320.27	8.47881093
320.479	8.42038879
320.688	8.34046989
320.897	8.25795207
321.105	8.17719921
321.314	8.11147997
321.523	8.064941
321.732	8.02458054
321.941	7.9676128
322.15	7.94055587
322.359	7.89276181
322.567	7.85535585
322.776	7.80595335
322.985	7.77329177
323.194	7.72020287
323.403	7.68779556
323.611	7.64017008
323.82	7.61639078
324.029	7.59785217
324.237	7.57886848
324.446	7.57191319
324.655	7.55072778
324.864	7.52276951
325.072	7.50796275
325.281	7.50903439
325.49	7.49987234
325.698	7.50245035
325.907	7.49135415
326.116	7.45691371
326.324	7.44574385
326.533	7.43930474
326.741	7.43893538
326.95	7.41592171
327.159	7.40620704
327.367	7.37786106
327.576	7.37162963
327.784	7.35741493
327.993	7.36545242
328.201	7.34058565
328.41	7.32171768
328.618	7.32013669
328.827	7.31900891
329.035	7.30705461
329.244	7.3206195
329.452	7.32958414
329.661	7.32599617
329.869	7.31287921
330.078	7.30812896
330.286	7.29663583
330.495	7.30734742
330.703	7.29711492
330.911	7.27629088
331.12	7.25371663
331.328	7.25827763
331.537	7.24225922
331.745	7.23564627
331.953	7.23030371
332.162	7.22062279
332.37	7.2066367
332.578	7.21992147
332.787	7.23245521
332.995	7.23182443
333.203	7.2085019
333.411	7.20584753
333.62	7.17850345
333.828	7.16328089
334.036	7.14924934
334.244	7.16248813
334.453	7.15080716
334.661	7.14745855
334.869	7.14126494
335.077	7.14120154
335.285	7.14765915
335.494	7.15284561
335.702	7.13291742
335.91	7.12723966
336.118	7.12636115
336.326	7.10616195
336.534	7.11241778
336.742	7.09961076
336.951	7.09916379
337.159	7.07299695
337.367	7.06009793
337.575	7.0700781
337.783	7.05801386
337.991	7.06048649
338.199	7.05845254
338.407	7.06904122
338.615	7.04543665
338.823	7.04826102
339.031	7.03261869
339.239	7.03054832
339.447	7.03068287
339.655	7.02948741
339.863	7.02309181
340.071	7.03570248
340.279	7.03487642
340.487	7.02609367
340.695	7.03352069
340.903	7.00673626
341.11	7.00976068
341.318	7.00548736
341.526	7.00816717
341.734	7.00869857
341.942	7.00680607
342.15	6.99277916
342.358	7.00075271
342.565	7.01011452
342.773	6.9887709
342.981	6.98823885
343.189	6.98026986
343.397	6.97972862
343.604	6.9691048
343.812	6.96674576
344.02	6.94412616
344.228	6.94094593
344.435	6.93453233
344.643	6.92265724
344.851	6.91893355
345.058	6.92415014
345.266	6.9344868
345.474	6.92348624
345.681	6.91565948
345.889	6.91445057
346.097	6.90539435
346.304	6.90020822
346.512	6.89347201
346.72	6.88235704
346.927	6.87515272
347.135	6.87862941
347.342	6.86775935
347.55	6.86477001
347.758	6.86671044
347.965	6.86691499
348.173	6.85976858
348.38	6.86729208
348.588	6.86870439
348.795	6.86902335
349.003	6.8626684
349.21	6.87026677
349.418	6.87009826
349.625	6.87040459
349.833	6.88429181
350.04	6.88217842
350.247	6.88599182
350.455	6.88451716
350.662	6.87731509
350.87	6.8947895
351.077	6.90025903
351.284	6.89016511
351.492	6.89166346
351.699	6.89293706
351.906	6.89315291
352.114	6.88906217
352.321	6.8976735
352.528	6.89540586
352.736	6.88546469
352.943	6.88190268
353.15	6.8634272
353.358	6.88234175
353.565	6.8732765
353.772	6.86305229
353.979	6.87533929
354.187	6.86888289
354.394	6.86480576
354.601	6.85671292
354.808	6.84949431
355.015	6.84633761
355.223	6.83710494
355.43	6.82916247
355.637	6.83186616
355.844	6.8231992
356.051	6.82589475
356.258	6.81345611
356.465	6.80200544
356.673	6.78820575
356.88	6.78214125
357.087	6.79792304
357.294	6.78612423
357.501	6.79570969
357.708	6.78384207
357.915	6.76481796
358.122	6.75555467
358.329	6.72990438
358.536	6.72844478
358.743	6.72302946
358.95	6.71882325
359.157	6.71944389
359.364	6.71966327
359.571	6.71911936
359.778	6.7045974
359.985	6.69397931
360.192	6.68752625
360.399	6.68285334
360.606	6.69439729
360.812	6.69207057
361.019	6.69223957
361.226	6.68855732
361.433	6.66650754
361.64	6.66664866
361.847	6.66431436
362.054	6.65886217
362.26	6.65571165
362.467	6.65096719
362.674	6.65121601
362.881	6.63920159
363.088	6.64726301
363.294	6.64131247
363.501	6.6288922
363.708	6.61613299
363.915	6.61042358
364.121	6.62337344
364.328	6.62434927
364.535	6.63188751
364.741	6.63439875
364.948	6.62096474
365.155	6.62021511
365.361	6.62237514
365.568	6.61845338
365.775	6.6314416
365.981	6.62431392
366.188	6.61528265
366.395	6.60719958
366.601	6.62256197
366.808	6.63862525
367.014	6.64361678
367.221	6.64390702
367.427	6.62071157
367.634	6.62956506
367.84	6.63461014
368.047	6.64463837
368.254	6.64646787
368.46	6.64391379
368.667	6.64221856
368.873	6.64487217
369.079	6.63894482
369.286	6.63282428
369.492	6.63888449
369.699	6.62935982
369.905	6.63471338
370.112	6.63162607
370.318	6.63682425
370.524	6.64801916
370.731	6.65455818
370.937	6.65223405
371.144	6.63616649
371.35	6.63567347
371.556	6.63559695
371.763	6.64645289
371.969	6.6368733
372.175	6.635786
372.381	6.62808393
372.588	6.63272967
372.794	6.64193767
373	6.63968125
373.206	6.62683681
373.413	6.62920909
373.619	6.63343008
373.825	6.63474395
374.031	6.63767666
374.238	6.63638574
374.444	6.63437527
374.65	6.63886368
374.856	6.63986133
375.062	6.65206163
375.268	6.65237502
375.475	6.65686986
375.681	6.65941515
375.887	6.67373376
376.093	6.68027205
376.299	6.66541953
376.505	6.673965
376.711	6.69593334
376.917	6.69314549
377.123	6.68321895
377.329	6.69267436
377.535	6.70503342
377.741	6.71407734
377.947	6.72700051
378.153	6.724701
378.359	6.72829614
378.565	6.72183265
378.771	6.73113519
378.977	6.72920729
379.183	6.73084109
379.389	6.72618995
379.595	6.72773432
379.801	6.7313592
380.007	6.7290796
380.213	6.72428357
380.418	6.72275595
380.624	6.74699349
380.83	6.7471684
381.036	6.72466546
381.242	6.71931972
381.448	6.72125356
381.653	6.70781963
381.859	6.72015758
382.065	6.71076153
382.271	6.70322048
382.476	6.70521488
382.682	6.69875017
382.888	6.71655695
383.094	6.70691248
383.299	6.70775505
383.505	6.69747097
383.711	6.69496447
383.916	6.68907884
384.122	6.68300413
384.328	6.68584987
384.533	6.68786653
384.739	6.68835504
384.945	6.69485013
385.15	6.69219309
385.356	6.70165996
385.562	6.71717156
385.767	6.7127154
385.973	6.73370216
386.178	6.72794702
386.384	6.72415201
386.589	6.72744541
386.795	6.72669737
387	6.72815905
387.206	6.72000938
387.411	6.71164964
387.617	6.71787428
387.822	6.72516969
388.028	6.73637339
388.233	6.74498451
388.439	6.75511152
388.644	6.75368216
388.85	6.74602506
389.055	6.73948347
389.26	6.72894432
389.466	6.72773564
389.671	6.7265723
389.877	6.71752587
390.082	6.71043863
390.287	6.69288463
390.493	6.68485805
390.698	6.68745384
390.903	6.68624371
391.109	6.68227129
391.314	6.67711944
391.519	6.67458157
391.724	6.66383101
391.93	6.65795545
392.135	6.64171098
392.34	6.64002184
392.545	6.62789759
392.751	6.61119896
392.956	6.5970244
393.161	6.59387164
393.366	6.5907027
393.571	6.57851665
393.776	6.57528797
393.982	6.56502085
394.187	6.55740246
394.392	6.55800143
394.597	6.54607164
394.802	6.53577837
395.007	6.53778539
395.212	6.52986704
395.417	6.5302594
395.622	6.52847025
395.827	6.5168923
396.032	6.52380275
396.237	6.50899981
396.442	6.51052044
396.647	6.48442434
396.852	6.48567916
397.057	6.47896024
397.262	6.48193824
397.467	6.4665609
397.672	6.45939763
397.877	6.4583583
398.082	6.45089518
398.287	6.44461532
398.492	6.435444
398.697	6.42358452
398.902	6.43328631
399.107	6.42890656
399.311	6.41696164
399.516	6.41475544
399.721	6.41288364
399.926	6.40625155
400.131	6.4072864
400.336	6.41435883
400.54	6.41838461
400.745	6.41397828
400.95	6.42840223
401.155	6.42188534
401.359	6.4259539
401.564	6.41546337
401.769	6.42266811
401.974	6.43374483
402.178	6.43545369
402.383	6.43713624
402.588	6.43651594
402.792	6.44808984
402.997	6.45142949
403.202	6.4411732
403.406	6.44327129
403.611	6.43778495
403.815	6.43009667
404.02	6.4240837
404.225	6.4279632
404.429	6.43506903
404.634	6.42504162
404.838	6.42313403
405.043	6.42292659
405.247	6.41211237
405.452	6.41517938
405.656	6.42034206
405.861	6.42861524
406.065	6.42966825
406.27	6.41669225
406.474	6.41764857
406.679	6.41660525
406.883	6.42408878
407.088	6.41807436
407.292	6.42379294
407.497	6.42540607
407.701	6.43241824
407.905	6.43568219
408.11	6.44057981
408.314	6.43491871
408.518	6.43611999
408.723	6.42542298
408.927	6.4210269
409.131	6.42232112
409.336	6.42154944
409.54	6.4236306
409.744	6.42200184
409.949	6.41207148
410.153	6.40846691
410.357	6.4094355
410.561	6.40684756
410.766	6.40760034
410.97	6.41467287
411.174	6.40967815
411.378	6.41294804
411.582	6.41393013
411.787	6.41980248
411.991	6.41510546
412.195	6.41324076
412.399	6.42055233
412.603	6.42385332
412.807	6.42593194
413.011	6.4358998
413.215	6.44153248
413.419	6.44609683
413.624	6.45609414
413.828	6.46395024
414.032	6.46720761
414.236	6.47326749
414.44	6.47758405
414.644	6.47384929
414.848	6.48176972
415.052	6.48137403
415.256	6.47717914
415.46	6.4846697
415.664	6.48455728
415.868	6.47993431
416.072	6.48692295
416.275	6.49420621
416.479	6.50537726
416.683	6.4982873
416.887	6.49938583
417.091	6.50165614
417.295	6.5052479
417.499	6.51273219
417.703	6.51375503
417.906	6.50612769
418.11	6.50502826
418.314	6.50386071
418.518	6.50713134
418.722	6.5181454
418.925	6.52797325
419.129	6.53354226
419.333	6.54130341
419.537	6.53655982
419.74	6.5338398
419.944	6.53632679
420.148	6.53401927
420.352	6.53260022
420.555	6.5307456
420.759	6.53364194
420.963	6.54119336
421.166	6.54561171
421.37	6.5441526
421.573	6.5412421
421.777	6.54286849
421.981	6.54232205
422.184	6.55450845
422.388	6.55503049
422.591	6.56212116
422.795	6.5747797
422.999	6.58166464
423.202	6.58194683
423.406	6.58626378
423.609	6.58288166
423.813	6.59930863
424.016	6.60746417
424.22	6.61401397
424.423	6.62577516
424.627	6.62564986
424.83	6.62080171
425.033	6.61518919
425.237	6.61557526
425.44	6.61727309
425.644	6.61787583
425.847	6.61900627
426.05	6.61339655
426.254	6.61233162
426.457	6.61049044
426.66	6.61176472
426.864	6.61743399
427.067	6.61549109
427.27	6.59711049
427.474	6.60210748
427.677	6.59969562
427.88	6.60065986
428.084	6.59201393
428.287	6.58398189
428.49	6.57928289
428.693	6.57902507
428.896	6.57752
429.1	6.58033181
429.303	6.58789964
429.506	6.58741397
429.709	6.59346998
429.912	6.59571592
430.116	6.5869103
430.319	6.58973611
430.522	6.58679148
430.725	6.57997851
430.928	6.58044328
431.131	6.57322784
431.334	6.56812653
431.537	6.56832812
431.74	6.55997497
431.943	6.54929313
432.146	6.55203311
432.349	6.55516187
432.552	6.55421549
432.755	6.55225947
432.958	6.54894694
433.161	6.55362532
433.364	6.55582139
433.567	6.55537722
433.77	6.55023675
433.973	6.54530905
434.176	6.53999662
434.379	6.54690167
434.582	6.54255478
434.785	6.54843098
434.988	6.54437306
435.19	6.54546864
435.393	6.54286294
435.596	6.5427249
435.799	6.55046688
436.002	6.54916237
436.205	6.56608483
436.407	6.56023211
436.61	6.56234047
436.813	6.55662918
437.016	6.56071075
437.218	6.56585714
437.421	6.56252774
437.624	6.56273138
437.827	6.56828214
438.029	6.57313454
438.232	6.57292912
438.435	6.574372
438.637	6.57065447
438.84	6.56955995
439.043	6.57166943
439.245	6.57613551
439.448	6.5822331
439.65	6.58158479
439.853	6.57944311
440.056	6.57292431
440.258	6.57456729
440.461	6.56283094
440.663	6.56933026
440.866	6.56643138
441.068	6.58078671
441.271	6.57858581
441.473	6.57613522
441.676	6.57487087
441.878	6.57913304
442.081	6.57292409
442.283	6.57465037
442.486	6.58361093
442.688	6.59458284
442.89	6.59556889
443.093	6.59962635
443.295	6.59410489
443.498	6.59792364
443.7	6.59120444
443.902	6.59288315
444.105	6.5952737
444.307	6.60565972
444.509	6.60837306
444.712	6.61648303
444.914	6.62002864
445.116	6.63078699
445.319	6.62025077
445.521	6.6246175
445.723	6.62744303
445.925	6.63860568
446.128	6.63931337
446.33	6.64175935
446.532	6.63733707
446.734	6.63118977
446.936	6.62373472
447.139	6.63448602
447.341	6.62845149
447.543	6.63526223
447.745	6.63017883
447.947	6.63096935
448.149	6.63297102
448.351	6.63061287
448.553	6.62168191
448.755	6.62822791
448.958	6.63251061
449.16	6.62396498
449.362	6.62013201
449.564	6.62702979
449.766	6.62268889
449.968	6.62439739
450.17	6.61080288
450.372	6.61113154
450.574	6.60473865
450.776	6.61075436
450.978	6.61273592
451.179	6.61324042
451.381	6.60936933
451.583	6.62492898
451.785	6.6227015
451.987	6.62782786
452.189	6.62572039
452.391	6.62392599
452.593	6.62502867
452.795	6.63016203
452.996	6.61911012
453.198	6.61073144
453.4	6.61319598
453.602	6.60679497
453.804	6.60722975
454.005	6.60228507
454.207	6.59896949
454.409	6.60226264
454.611	6.59778077
454.812	6.60067863
455.014	6.6015121
455.216	6.59952175
455.417	6.60027386
455.619	6.5982652
455.821	6.59319293
456.022	6.59311516
456.224	6.58997998
456.426	6.58928178
456.627	6.59530031
456.829	6.59616111
457.031	6.58893118
457.232	6.59845657
457.434	6.59706075
457.635	6.60098345
457.837	6.60160689
458.038	6.60191174
458.24	6.60781111
458.441	6.61079062
458.643	6.61606247
458.844	6.62141561
459.046	6.6308473
459.247	6.63303055
459.449	6.63627907
459.65	6.63144799
459.852	6.63582641
460.053	6.6335723
460.254	6.62634558
460.456	6.63029273
460.657	6.63428231
460.859	6.63068116
461.06	6.63410103
461.261	6.64524341
461.463	6.63989329
461.664	6.64767896
461.865	6.65058337
462.066	6.64828051
462.268	6.65398967
462.469	6.65119591
462.67	6.64623295
462.872	6.64571094
463.073	6.64328331
463.274	6.63828988
463.475	6.6353768
463.676	6.63514414
463.878	6.64343583
464.079	6.64385545
464.28	6.64576906
464.481	6.65065076
464.682	6.64982274
464.883	6.65468048
465.085	6.65718281
465.286	6.65213256
465.487	6.64728858
465.688	6.646752
465.889	6.64549912
466.09	6.64678488
466.291	6.64779284
466.492	6.64772968
466.693	6.64918973
466.894	6.65404123
467.095	6.65539314
467.296	6.65634494
467.497	6.65202895
467.698	6.65489677
467.899	6.65460705
468.1	6.65126812
468.301	6.64917963
468.502	6.64503311
468.703	6.64740022
468.903	6.64877594
469.104	6.64473116
469.305	6.64409622
469.506	6.64346177
469.707	6.64662568
469.908	6.65033357
470.109	6.64687251
470.309	6.64553443
470.51	6.64822534
470.711	6.64314025
470.912	6.64721989
471.112	6.64768224
471.313	6.64489246
471.514	6.6489315
471.715	6.64380254
471.915	6.63790982
472.116	6.63874265
472.317	6.6395715
472.517	6.6343046
472.718	6.64244253
472.919	6.64558308
473.119	6.64573686
473.32	6.64654863
473.521	6.64775841
473.721	6.65489907
473.922	6.65489563
474.122	6.65515662
474.323	6.65752564
474.523	6.65944763
474.724	6.65486457
474.925	6.65866358
475.125	6.65951267
475.326	6.65668297
475.526	6.65507121
475.727	6.65258053
475.927	6.66586883
476.127	6.67143197
476.328	6.67339561
476.528	6.6694446
476.729	6.67785794
476.929	6.67634659
477.13	6.67622321
477.33	6.67760105
477.53	6.68074466
477.731	6.68259333
477.931	6.67659472
478.131	6.67941056
478.332	6.67724127
478.532	6.6745613
478.732	6.67023617
478.933	6.67766489
479.133	6.67965079
479.333	6.68116321
479.533	6.68559957
479.734	6.69122428
479.934	6.69349076
480.134	6.68961031
480.334	6.68473833
480.534	6.67718734
480.735	6.68035068
480.935	6.68247683
481.135	6.68301975
481.335	6.68186587
481.535	6.68480232
481.735	6.68189438
481.935	6.68244535
482.136	6.68880463
482.336	6.69078359
482.536	6.69556728
482.736	6.69953388
482.936	6.70298437
483.136	6.70481452
483.336	6.7038935
483.536	6.70213712
483.736	6.70332855
483.936	6.70402794
484.136	6.70203808
484.336	6.70336018
484.536	6.70571254
484.736	6.71012751
484.936	6.71141743
485.135	6.70811854
485.335	6.709676
485.535	6.71358596
485.735	6.71086463
485.935	6.71672991
486.135	6.71715463
486.335	6.71705653
486.534	6.71396514
486.734	6.7123932
486.934	6.71716027
487.134	6.71961062
487.334	6.716555
487.533	6.71426602
487.733	6.72132338
487.933	6.72476659
488.133	6.72520148
488.332	6.7262372
488.532	6.72785915
488.732	6.73341441
488.931	6.73962496
489.131	6.74561993
489.331	6.75106174
489.53	6.75240876
489.73	6.75454318
489.93	6.75904528
490.129	6.75875892
490.329	6.76270005
490.528	6.76237944
490.728	6.76463845
490.928	6.771518
491.127	6.77685991
491.327	6.77863368
491.526	6.78503554
491.726	6.78917185
491.925	6.78769047
492.125	6.78688592
492.324	6.78698493
492.524	6.78714275
492.723	6.79243467
492.922	6.79568982
493.122	6.79800207
493.321	6.79914782
493.521	6.79782894
493.72	6.7980779
493.919	6.80699874
494.119	6.80692742
494.318	6.80853381
494.517	6.81199139
494.717	6.81768541
494.916	6.81721411
495.115	6.81805286
495.315	6.81410697
495.514	6.81901192
495.713	6.81928218
495.912	6.82077656
496.112	6.82325441
496.311	6.82620638
496.51	6.83025641
496.709	6.83758693
496.908	6.83657612
497.108	6.83614584
497.307	6.83844273
497.506	6.83743932
497.705	6.8446267
497.904	6.8491763
498.103	6.84032891
498.302	6.84708844
498.501	6.84847679
498.701	6.8492004
498.9	6.85349923
499.099	6.85925843
499.298	6.85885903
499.497	6.85965326
499.696	6.85407517
499.895	6.85819197
500.094	6.86388057
500.293	6.86314213
500.492	6.86577716
500.691	6.86994378
500.89	6.87303097
501.088	6.87371075
501.287	6.88062196
501.486	6.88394274
501.685	6.88583243
501.884	6.88964215
502.083	6.89294737
502.282	6.89618937
502.481	6.89795317
502.679	6.90311834
502.878	6.90752338
503.077	6.90630035
503.276	6.90257562
503.475	6.90843784
503.673	6.91458666
503.872	6.92025093
504.071	6.91778941
504.27	6.92051893
504.468	6.92674232
504.667	6.93097269
504.866	6.93253899
505.064	6.93167889
505.263	6.9374915
505.462	6.93951709
505.66	6.94182926
505.859	6.94826993
506.058	6.94073457
506.256	6.94510166
506.455	6.95266849
506.653	6.95172266
506.852	6.95262904
507.05	6.95366481
507.249	6.95284518
507.448	6.95954659
507.646	6.96146
507.845	6.96089247
508.043	6.96526372
508.242	6.97437792
508.44	6.975968
508.638	6.97517598
508.837	6.97603514
509.035	6.97432672
509.234	6.97489637
509.432	6.97541116
509.631	6.97339818
509.829	6.97403775
510.027	6.97918145
510.226	6.98756467
510.424	6.98644706
510.622	6.98276683
510.821	6.98385187
511.019	6.98311166
511.217	6.98489905
511.415	6.98949126
511.614	6.99503457
511.812	6.99161993
512.01	6.99859301
512.208	7.0011829
512.407	6.99728245
512.605	6.99698015
512.803	7.00085355
513.001	7.001515
513.199	7.00585421
513.398	7.01463584
513.596	7.01836042
513.794	7.02110921
513.992	7.02512495
514.19	7.02272873
514.388	7.02294859
514.586	7.02379146
514.784	7.02515879
514.982	7.0293919
515.18	7.03783649
515.378	7.03661174
515.576	7.04250917
515.774	7.04627064
515.972	7.05564385
516.17	7.05593879
516.368	7.05657522
516.566	7.06410607
516.764	7.07038849
516.962	7.07201504
517.16	7.0738914
517.358	7.07931356
517.556	7.07878394
517.754	7.08381788
517.952	7.09097216
518.149	7.094615
518.347	7.09810835
518.545	7.10370339
518.743	7.10776983
518.941	7.1159168
519.138	7.11992469
519.336	7.11920847
519.534	7.12809398
519.732	7.13026223
519.929	7.13630866
520.127	7.13559121
520.325	7.1365283
520.523	7.14150467
520.72	7.14047686
520.918	7.1415443
521.116	7.14395041
521.313	7.15075274
521.511	7.1555041
521.709	7.16124636
521.906	7.16211168
522.104	7.16239518
522.301	7.16377909
522.499	7.17010727
522.696	7.17241276
522.894	7.17711898
523.092	7.18131497
523.289	7.18451759
523.487	7.1892013
523.684	7.18668304
523.882	7.19079045
524.079	7.19253821
524.276	7.20047858
524.474	7.20588943
524.671	7.20512932
524.869	7.21220865
525.066	7.21318858
525.264	7.22204758
525.461	7.22372383
525.658	7.22706308
525.856	7.23104643
526.053	7.2378844
526.25	7.24401485
526.448	7.24791757
526.645	7.25006154
526.842	7.25619984
527.039	7.25776327
527.237	7.26237746
527.434	7.26713676
527.631	7.27230804
527.828	7.27726363
528.026	7.27906273
528.223	7.27998191
528.42	7.27775388
528.617	7.28033014
528.814	7.28587538
529.012	7.28910163
529.209	7.29334187
529.406	7.29144436
529.603	7.29174482
529.8	7.29509213
529.997	7.29359351
530.194	7.29703824
530.391	7.30056874
530.588	7.30156845
530.785	7.30387851
530.982	7.30275571
531.179	7.30772993
531.376	7.31068487
531.573	7.31689719
531.77	7.32516876
531.967	7.32853831
532.164	7.3331159
532.361	7.33268554
532.558	7.33431639
532.755	7.3400702
532.952	7.34797215
533.149	7.34802421
533.346	7.35953121
533.543	7.36844266
533.739	7.37923835
533.936	7.38103912
534.133	7.38685193
534.33	7.3859729
534.527	7.38578016
534.723	7.39501973
534.92	7.3987995
535.117	7.40557017
535.314	7.40832989
535.51	7.4100072
535.707	7.41377494
535.904	7.40942229
536.1	7.41907516
536.297	7.42404801
536.494	7.426173
536.69	7.43283401
536.887	7.4338942
537.084	7.43328919
537.28	7.43844935
537.477	7.43833929
537.674	7.43321265
537.87	7.43028091
538.067	7.43283744
538.263	7.43574586
538.46	7.4383011
538.656	7.44053504
538.853	7.43949773
539.049	7.44273693
539.246	7.44204691
539.442	7.44985962
539.639	7.45151345
539.835	7.44828716
540.032	7.44900193
540.228	7.44509376
540.424	7.448189
540.621	7.45441887
540.817	7.45757816
541.014	7.46164726
541.21	7.47078408
541.406	7.47472275
541.603	7.48233778
541.799	7.48844946
541.995	7.49345979
542.191	7.50051097
542.388	7.50922984
542.584	7.51270554
542.78	7.51617895
542.976	7.51959317
543.173	7.51993307
543.369	7.52682367
543.565	7.52793275
543.761	7.53640806
543.957	7.53872391
544.154	7.53933341
544.35	7.54111518
544.546	7.54185763
544.742	7.54826921
544.938	7.55356115
545.134	7.55497693
545.33	7.55088092
545.526	7.55366331
545.722	7.54762705
545.919	7.55467381
546.115	7.55386544
546.311	7.54944047
546.507	7.54389398
546.703	7.55011769
546.899	7.55211983
547.095	7.55595772
547.29	7.55930293
547.486	7.55969812
547.682	7.56007931
547.878	7.55219399
548.074	7.5593413
548.27	7.56448548
548.466	7.56794329
548.662	7.56713977
548.858	7.56657002
549.053	7.56867399
549.249	7.57369854
549.445	7.57738893
549.641	7.57981999
549.837	7.58232819
550.032	7.58638126
550.228	7.59550129
550.424	7.60050564
550.62	7.60489386
550.815	7.60335513
551.011	7.60518384
551.207	7.60197594
551.402	7.6094251
551.598	7.61107707
551.794	7.61133414
551.989	7.61873657
552.185	7.61954853
552.381	7.62211108
552.576	7.62235045
552.772	7.62471531
552.967	7.62934536
553.163	7.63439671
553.359	7.63846141
553.554	7.63632504
553.75	7.63781353
553.945	7.63593752
554.141	7.63458195
554.336	7.63491914
554.532	7.64246743
554.727	7.64184642
554.922	7.64216888
555.118	7.65265221
555.313	7.64979471
555.509	7.64785774
555.704	7.64895387
555.899	7.64889934
556.095	7.6484411
556.29	7.64684234
556.486	7.65555552
556.681	7.65900661
556.876	7.66130706
557.071	7.6532828
557.267	7.65254268
557.462	7.64660152
557.657	7.64993912
557.853	7.65105679
558.048	7.661529
558.243	7.66395656
558.438	7.66276619
558.633	7.65632026
558.829	7.66157617
559.024	7.66214583
559.219	7.65741561
559.414	7.66850597
559.609	7.66931129
559.804	7.67386824
559.999	7.67842578
560.194	7.6834858
560.39	7.69013101
560.585	7.69287416
560.78	7.69810863
560.975	7.69791742
561.17	7.70424827
561.365	7.70836273
561.56	7.7190838
561.755	7.72384943
561.95	7.73268965
562.145	7.73242361
562.34	7.73089996
562.535	7.7346235
562.729	7.74475473
562.924	7.74316431
563.119	7.74944186
563.314	7.75131667
563.509	7.74892346
563.704	7.7506749
563.899	7.75408225
564.093	7.74690547
564.288	7.75017822
564.483	7.75090613
564.678	7.74908152
564.873	7.75378712
565.067	7.76278865
565.262	7.77262435
565.457	7.76829571
565.652	7.76799773
565.846	7.77187255
566.041	7.76502045
566.236	7.76916007
566.43	7.77380311
566.625	7.78420792
566.82	7.78623964
567.014	7.79212723
567.209	7.7984003
567.404	7.80344894
567.598	7.80658608
567.793	7.81316009
567.987	7.81528557
568.182	7.82598494
568.376	7.82513238
568.571	7.82768895
568.765	7.83267768
568.96	7.82997876
569.154	7.82960355
569.349	7.82883862
569.543	7.83830667
569.738	7.83386174
569.932	7.83262785
570.127	7.84151892
570.321	7.83859976
570.515	7.84068622
570.71	7.8357788
570.904	7.83701452
571.098	7.83843474
571.293	7.83747153
571.487	7.83515935
571.681	7.83496054
571.876	7.83064017
572.07	7.82879599
572.264	7.828677
572.458	7.82770109
572.653	7.82929243
572.847	7.82675742
573.041	7.83166478
573.235	7.83076097
573.43	7.82440391
573.624	7.81757416
573.818	7.82437236
574.012	7.82284099
574.206	7.81842323
574.4	7.81762957
574.594	7.81530847
574.788	7.82161972
574.983	7.82064294
575.177	7.82279414
575.371	7.81882667
575.565	7.82894278
575.759	7.8350151
575.953	7.83495021
576.147	7.83892367
576.341	7.84802751
576.535	7.85591815
576.729	7.8535236
576.923	7.85249023
577.117	7.85298098
577.31	7.85049066
577.504	7.85873158
577.698	7.86653517
577.892	7.86960354
578.086	7.87676039
578.28	7.87938717
578.474	7.88492211
578.668	7.88599529
578.861	7.88040294
579.055	7.87815945
579.249	7.87693684
579.443	7.87610059
579.636	7.87121659
579.83	7.86869468
580.024	7.87983783
580.218	7.87920456
580.411	7.88244753
580.605	7.88190298
580.799	7.89390885
580.992	7.90256459
581.186	7.9038442
581.38	7.91074517
581.573	7.91652209
581.767	7.91213516
581.961	7.90843395
582.154	7.90991082
582.348	7.90920408
582.541	7.91118021
582.735	7.9150691
582.928	7.92164898
583.122	7.92453449
583.315	7.92628691
583.509	7.93655297
583.702	7.93647662
583.896	7.94200044
584.089	7.93959271
584.283	7.94345396
584.476	7.94073715
584.67	7.94296194
584.863	7.93147488
585.056	7.93681575
585.25	7.93636746
585.443	7.94059677
585.636	7.94448666
585.83	7.95479276
586.023	7.96862765
586.216	7.9693155
586.41	7.98184929
586.603	7.98471062
586.796	7.98921357
586.989	7.98452235
587.183	7.98924874
587.376	7.99631275
587.569	8.00151382
587.762	8.0142803
587.955	8.01389372
588.149	8.01930862
588.342	8.01960392
588.535	8.02025039
588.728	8.01977509
588.921	8.03296189
589.114	8.03084226
589.307	8.0336933
589.5	8.03831288
589.693	8.03830791
589.886	8.04310469
590.08	8.0344266
590.273	8.04182739
590.466	8.03811203
590.659	8.04177738
590.852	8.04002739
591.044	8.04687136
591.237	8.04411926
591.43	8.04752205
591.623	8.03927057
591.816	8.03289229
592.009	8.03573233
592.202	8.03572942
592.395	8.03810799
592.588	8.04087529
592.781	8.03870573
592.973	8.037653
593.166	8.04078297
593.359	8.05310764
593.552	8.04793477
593.745	8.03786751
593.937	8.02926336
594.13	8.03198864
594.323	8.02996621
594.515	8.0287462
594.708	8.02403459
594.901	8.02978556
595.094	8.02552563
595.286	8.03233086
595.479	8.03213839
595.672	8.03366963
595.864	8.03159705
596.057	8.03446496
596.249	8.02675262
596.442	8.02959752
596.635	8.0258171
596.827	8.02807804
597.02	8.01943223
597.212	8.01275395
597.405	7.99607818
597.597	7.99867247
597.79	8.01014879
597.982	8.00420493
598.175	8.00872602
598.367	8.00864246
598.559	8.01134638
598.752	8.01265923
598.944	8.00997414
599.137	8.0110265
599.329	8.00674019
599.521	8.00633537
599.714	8.01742727
599.906	8.01292797
600.098	8.01753324
600.291	8.01867717
600.483	8.0157038
600.675	8.0235079
600.868	8.02581645
601.06	8.03095238
601.252	8.02865478
601.444	8.03228783
601.637	8.03363905
601.829	8.03057049
602.021	8.04003852
602.213	8.03060389
602.405	8.0255188
602.597	8.00985999
602.789	8.00706304
602.982	8.00728038
603.174	8.00948569
603.366	8.01017901
603.558	8.00266983
603.75	7.99907658
603.942	8.005869
604.134	7.98853805
604.326	7.995869
604.518	7.99165156
604.71	7.99259037
604.902	7.99543265
605.094	8.00009132
605.286	8.00317865
605.478	8.0048861
605.67	8.00019567
605.862	7.99866444
606.054	7.99242292
606.246	8.00395829
606.437	8.01012042
606.629	8.02124958
606.821	8.02140601
607.013	8.02166062
607.205	8.01743873
607.397	8.02245006
607.588	8.02984567
607.78	8.0281558
607.972	8.03124023
608.164	8.04298604
608.355	8.04687739
608.547	8.05352748
608.739	8.04750674
608.93	8.05096891
609.122	8.04123547
609.314	8.04099362
609.505	8.04308699
609.697	8.05138519
609.889	8.05330159
610.08	8.06050315
610.272	8.05468187
610.463	8.05312306
610.655	8.05738499
610.847	8.06069272
611.038	8.05913965
611.23	8.06665614
611.421	8.06353438
611.613	8.06346782
611.804	8.05982256
611.996	8.05399
612.187	8.04652995
612.379	8.04239809
612.57	8.04541107
612.761	8.04654765
612.953	8.04657886
613.144	8.05596287
613.336	8.05778174
613.527	8.05960962
613.718	8.05863885
613.91	8.06345112
614.101	8.06449246
614.292	8.07232076
614.483	8.08367085
614.675	8.0801115
614.866	8.09013822
615.057	8.08918922
615.248	8.08999859
615.44	8.09204645
615.631	8.09170909
615.822	8.09500766
616.013	8.10403575
616.204	8.11236422
616.396	8.11645295
616.587	8.10663981
616.778	8.10788721
616.969	8.10979137
617.16	8.11629472
617.351	8.11946984
617.542	8.12599222
617.733	8.12525626
617.924	8.12008239
618.115	8.12164396
618.306	8.11474566
618.497	8.10805849
618.688	8.11466062
618.879	8.11714584
619.07	8.1338904
619.261	8.14101786
619.452	8.14729633
619.643	8.14105165
619.834	8.14692911
620.025	8.14866126
620.216	8.16068086
620.407	8.16835158
620.597	8.184711
620.788	8.19127205
620.979	8.191563
621.17	8.18969354
621.361	8.18807238
621.551	8.18708579
621.742	8.19639235
621.933	8.20691411
622.124	8.20473094
622.314	8.20769734
622.505	8.21787319
622.696	8.21643471
622.886	8.21664501
623.077	8.20872763
623.268	8.2097268
623.458	8.21820864
623.649	8.23310777
623.84	8.23258256
624.03	8.23750837
624.221	8.24623673
624.411	8.24637354
624.602	8.24685264
624.792	8.24497577
624.983	8.24997796
625.173	8.25151978
625.364	8.26947036
625.554	8.27557284
625.745	8.26993783
625.935	8.27094432
626.126	8.27700451
626.316	8.28523931
626.507	8.27458654
626.697	8.28867164
626.887	8.2944405
627.078	8.30304518
627.268	8.30420368
627.458	8.30286535
627.649	8.30054711
627.839	8.29724548
628.029	8.299584
628.22	8.29364502
628.41	8.30257902
628.6	8.29647845
628.79	8.29906478
628.981	8.30488716
629.171	8.30914832
629.361	8.30382103
629.551	8.29159034
629.741	8.30695087
629.932	8.30879378
630.122	8.31714941
630.312	8.32239372
630.502	8.32435981
630.692	8.31832866
630.882	8.31669382
631.072	8.3090267
631.262	8.31212304
631.452	8.31149507
631.642	8.31030063
631.832	8.32146115
632.022	8.31514427
632.212	8.31266559
632.402	8.30173771
632.592	8.3197148
632.782	8.33192214
632.972	8.33032212
633.162	8.32473491
633.352	8.32609935
633.542	8.34000501
633.732	8.33760196
633.922	8.33785056
634.111	8.33712562
634.301	8.32842786
634.491	8.33311205
634.681	8.34165001
634.871	8.33756384
635.06	8.35543563
635.25	8.34092628
635.44	8.34368523
635.63	8.35458516
635.819	8.35856744
636.009	8.36900873
636.199	8.36821748
636.388	8.36775625
636.578	8.35708231
636.768	8.34492552
636.957	8.33807461
637.147	8.34341757
637.337	8.34501404
637.526	8.34422418
637.716	8.34070189
637.905	8.34346868
638.095	8.34809406
638.284	8.35244406
638.474	8.36440932
638.663	8.36178934
638.853	8.36257408
639.042	8.35986349
639.232	8.37299443
639.421	8.36968607
639.611	8.37857083
639.8	8.3715085
639.99	8.35984286
640.179	8.37311314
640.368	8.38013677
640.558	8.38727967
640.747	8.38771044
640.936	8.39945471
641.126	8.40747961
641.315	8.40756089
641.504	8.41112617
641.694	8.41273762
641.883	8.41852921
642.072	8.41880079
642.261	8.41941898
642.451	8.41900413
642.64	8.42032863
642.829	8.425943
643.018	8.43088193
643.207	8.44229272
643.397	8.45105834
643.586	8.44354963
643.775	8.46302826
643.964	8.47268603
644.153	8.47427278
644.342	8.47999852
644.531	8.48758281
644.72	8.501818
644.909	8.49331707
645.098	8.49702481
645.287	8.50487965
645.476	8.50634597
645.665	8.51241184
645.854	8.51457404
646.043	8.522004
646.232	8.52526447
646.421	8.5315725
646.61	8.53450477
646.799	8.53860989
646.988	8.53021037
647.177	8.51842245
647.365	8.52565937
647.554	8.53388438
647.743	8.51684958
647.932	8.52045184
648.121	8.51844215
648.309	8.51238628
648.498	8.50874395
648.687	8.49933187
648.876	8.51055828
649.064	8.51632501
649.253	8.5077567
649.442	8.50664723
649.63	8.49770432
649.819	8.49395031
650.008	8.48238828
650.196	8.49371415
650.385	8.48767445
650.574	8.49670038
650.762	8.50183283
650.951	8.51300935
651.139	8.53017247
651.328	8.51705179
651.516	8.520335
651.705	8.53192341
651.893	8.53688043
652.082	8.54660475
652.27	8.56273253
652.459	8.57208395
652.647	8.58672378
652.836	8.58992886
653.024	8.58490124
653.213	8.58110386
653.401	8.57919013
653.589	8.58468494
653.778	8.59225757
653.966	8.59341045
654.154	8.59025403
654.343	8.58390473
654.531	8.58497804
654.719	8.5789944
654.908	8.57156519
655.096	8.55769181
655.284	8.55873129
655.472	8.54905249
655.661	8.54571566
655.849	8.54580378
656.037	8.52807513
656.225	8.51268187
656.413	8.49735913
656.601	8.49314979
656.79	8.49535288
656.978	8.49429129
657.166	8.50191319
657.354	8.50836445
657.542	8.52114588
657.73	8.52825456
657.918	8.53199156
658.106	8.521881
658.294	8.52897526
658.482	8.52055906
658.67	8.52846358
658.858	8.5199389
659.046	8.52978377
659.234	8.52715845
659.422	8.52890847
659.61	8.53144472
659.798	8.53078839
659.986	8.54391955
660.173	8.54289734
660.361	8.5346808
660.549	8.54063909
660.737	8.54450416
660.925	8.54095192
661.113	8.55184663
661.3	8.55678625
661.488	8.55083603
661.676	8.53587088
661.864	8.5430163
662.051	8.54537196
662.239	8.5402066
662.427	8.54052558
662.614	8.53679231
662.802	8.54787575
662.99	8.54101224
663.177	8.54344271
663.365	8.53531458
663.553	8.54173163
663.74	8.54497025
663.928	8.54584867
664.115	8.55645797
664.303	8.58211442
664.49	8.56751723
664.678	8.57131703
664.866	8.57548557
665.053	8.56283397
665.24	8.56085137
665.428	8.56976921
665.615	8.56725642
665.803	8.56020914
665.99	8.56480901
666.178	8.57517004
666.365	8.58557137
666.552	8.58430684
666.74	8.58389576
666.927	8.59153297
667.114	8.6058983
667.302	8.61555888
667.489	8.62297489
667.676	8.61015646
667.864	8.61122243
668.051	8.6075614
668.238	8.59806148
668.425	8.60321262
668.613	8.60409094
668.8	8.61569254
668.987	8.62117229
669.174	8.63068573
669.361	8.62423443
669.548	8.64751144
669.736	8.65332199
669.923	8.66626894
670.11	8.67235721
670.297	8.6639884
670.484	8.67548301
670.671	8.67686124
670.858	8.67918691
671.045	8.67994017
671.232	8.69112939
671.419	8.68256072
671.606	8.68869532
671.793	8.67878915
671.98	8.68294824
672.167	8.68582935
672.354	8.6945072
672.541	8.68604369
672.728	8.66548837
672.915	8.67234169
673.101	8.66363331
673.288	8.65889116
673.475	8.66061516
673.662	8.65933137
673.849	8.64390558
674.035	8.63864789
674.222	8.6550675
674.409	8.66002782
674.596	8.66179599
674.783	8.65309193
674.969	8.64326377
675.156	8.64227513
675.343	8.6512348
675.529	8.66857663
675.716	8.67070664
675.903	8.66469817
676.089	8.66984878
676.276	8.67423883
676.462	8.67337848
676.649	8.7000436
676.836	8.70058305
677.022	8.72551854
677.209	8.73593572
677.395	8.73232375
677.582	8.7366058
677.768	8.75664603
677.955	8.74759052
678.141	8.73542555
678.328	8.73227319
678.514	8.74630279
678.701	8.75724363
678.887	8.76755585
679.073	8.76343705
679.26	8.76313445
679.446	8.76198573
679.632	8.77810428
679.819	8.80654917
680.005	8.81443615
680.191	8.82974167
680.378	8.83393005
680.564	8.84018119
680.75	8.854554
680.936	8.8459654
681.123	8.85440206
681.309	8.84770672
681.495	8.86231723
681.681	8.85121661
681.867	8.87069496
682.054	8.88380398
682.24	8.8892157
682.426	8.88923534
682.612	8.89398221
682.798	8.90797114
682.984	8.92514617
683.17	8.93921921
683.356	8.95343382
683.542	8.96666244
683.728	8.9603058
683.914	8.96095153
684.1	8.97246546
684.286	9.00018384
684.472	9.00602227
684.658	9.00963811
684.844	9.01604832
685.03	9.02496864
685.216	9.04737641
685.402	9.0524861
685.588	9.08565532
685.774	9.08985883
685.96	9.10371456
686.145	9.1157492
686.331	9.1237014
686.517	9.11659852
686.703	9.11284431
686.889	9.11926272
687.074	9.12154796
687.26	9.14147595
687.446	9.13101088
687.631	9.14267233
687.817	9.15452675
688.003	9.15804506
688.189	9.14260811
688.374	9.15944975
688.56	9.17003092
688.745	9.17815576
688.931	9.1887068
689.117	9.18027181
689.302	9.19531925
689.488	9.19803607
689.673	9.21421897
689.859	9.22552393
690.044	9.24111272
690.23	9.26361268
690.415	9.30003872
690.601	9.30769044
690.786	9.3252032
690.972	9.34379713
691.157	9.32965036
691.343	9.36081702
691.528	9.37230394
691.713	9.3727808
691.899	9.37758098
692.084	9.40670633
692.269	9.3886292
692.455	9.39325547
692.64	9.41754244
692.825	9.41822216
693.011	9.43025048
693.196	9.43292318
693.381	9.4326231
693.566	9.45576077
693.752	9.46257285
693.937	9.44893003
694.122	9.44060135
694.307	9.44003514
694.492	9.45796553
694.678	9.45785595
694.863	9.46557367
695.048	9.48601503
695.233	9.48181553
695.418	9.46838618
695.603	9.50312486
695.788	9.49176714
695.973	9.48626364
696.158	9.51347647
696.343	9.50160922
696.528	9.50203638
696.713	9.51458019
696.898	9.53528915
697.083	9.53973185
697.268	9.55630331
697.453	9.56070276
697.638	9.55852591
697.823	9.60091897
698.008	9.60861857
698.192	9.62311432
698.377	9.63460274
698.562	9.6500676
698.747	9.65426843
698.932	9.64894013
699.117	9.66845225
699.301	9.67493912
699.486	9.67645328
699.671	9.68581512
699.856	9.6973209
700.04	9.68597278
700.225	9.71412021
700.41	9.69818568
700.594	9.70562592
700.779	9.70146314
700.964	9.7242508
701.148	9.7418896
701.333	9.74915362
701.517	9.76949129
701.702	9.74395976
701.887	9.76797213
702.071	9.77422686
702.256	9.77729466
702.44	9.76829053
702.625	9.79262312
702.809	9.81201393
702.994	9.8179205
703.178	9.85451222
703.362	9.85882451
703.547	9.8871603
703.731	9.90365874
703.916	9.91345104
704.1	9.92865959
704.284	9.92834469
704.469	9.93060463
704.653	9.94476027
704.837	9.95321645
705.022	9.9530253
705.206	9.93934852
705.39	9.95875273
705.575	9.97652449
705.759	9.98300837
705.943	9.98211555
706.127	9.99005276
706.311	10.01931749
706.496	9.99831399
706.68	9.99290845
706.864	9.99063795
707.048	9.97537823
707.232	9.97175539
707.416	9.97816571
707.6	9.97581677
707.785	9.99779071
707.969	9.98303717
708.153	10.00878647
708.337	10.01766494
708.521	10.02636229
708.705	10.01718865
708.889	10.01345569
709.073	10.03892942
709.257	10.03344535
709.441	10.06508709
709.624	10.05476008
709.808	10.07017328
709.992	10.08306904
710.176	10.0845057
710.36	10.12109526
710.544	10.13439066
710.728	10.1519953
710.912	10.18211977
711.095	10.20681833
711.279	10.21870458
711.463	10.24367512
711.647	10.26321221
711.83	10.29939139
712.014	10.3187719
712.198	10.33482178
712.382	10.34705994
712.565	10.36205632
712.749	10.39069149
712.933	10.38866343
713.116	10.40140392
713.3	10.40148005
713.483	10.42102528
713.667	10.44323384
713.851	10.45327978
714.034	10.47513121
714.218	10.47248343
714.401	10.49872064
714.585	10.50167566
714.768	10.50922841
714.952	10.52962376
715.135	10.54040571
715.319	10.55449568
715.502	10.57236293
715.686	10.57068593
715.869	10.60083975
716.052	10.6115466
716.236	10.62150745
716.419	10.65849919
716.602	10.65217997
716.786	10.67661413
716.969	10.7000525
717.152	10.69328404
717.336	10.69825605
717.519	10.69228508
717.702	10.6988936
717.885	10.71970727
718.069	10.72660266
718.252	10.73437696
718.435	10.74559744
718.618	10.75898464
718.801	10.75069247
718.985	10.76386734
719.168	10.76052601
719.351	10.74281866
719.534	10.74404961
719.717	10.73916324
719.9	10.74904233
720.083	10.76711261
720.266	10.75906269
720.449	10.78323338
720.632	10.78735079
720.815	10.78589135
720.998	10.805173
721.181	10.81082247
721.364	10.82893918
721.547	10.8476046
721.73	10.83850637
721.913	10.85464094
722.096	10.85353492
722.279	10.86477646
722.461	10.87810783
722.644	10.88992994
722.827	10.88831443
723.01	10.90670155
723.193	10.90859289
723.376	10.91702042
723.558	10.91235507
723.741	10.90627688
723.924	10.89176593
724.107	10.88556914
724.289	10.87587749
724.472	10.87671172
724.655	10.85658515
724.837	10.86928511
725.02	10.87331232
725.203	10.8777732
725.385	10.87035814
725.568	10.86271137
725.75	10.85806606
725.933	10.86586007
726.115	10.87061333
726.298	10.85385515
726.481	10.85655445
726.663	10.86176839
726.845	10.86957241
727.028	10.87179253
727.21	10.88480208
727.393	10.88429412
727.575	10.87601391
727.758	10.89464631
727.94	10.90064451
728.122	10.90815059
728.305	10.91743364
728.487	10.92887881
728.67	10.9191097
728.852	10.93638441
729.034	10.93681759
729.216	10.94320756
729.399	10.96096481
729.581	10.9542019
729.763	10.95537209
729.945	10.94832601
730.128	10.96201355
730.31	10.97278665
730.492	10.97365619
730.674	10.96318923
730.856	10.96787098
731.039	10.96281066
731.221	10.9730352
731.403	11.00107735
731.585	11.00128683
731.767	11.00857147
731.949	11.00173014
732.131	11.01181605
732.313	11.00904533
732.495	11.00590138
732.677	11.00336449
732.859	11.01006424
733.041	11.01060134
733.223	11.00537744
733.405	11.02197507
733.587	11.01286458
733.769	11.0324415
733.951	11.0260845
734.132	11.01038763
734.314	11.0054855
734.496	10.9978728
734.678	11.00749486
734.86	11.00017294
735.042	10.98917034
735.223	10.98419848
735.405	10.97500422
735.587	10.97665861
735.769	10.98461921
735.95	10.97394584
736.132	10.97227138
736.314	10.97836746
736.495	10.96829995
736.677	10.97168124
736.859	10.9795903
737.04	10.97610334
737.222	10.96021743
737.403	10.97353477
737.585	10.95947927
737.767	10.96402066
737.948	10.95908949
738.13	10.96607282
738.311	10.95939961
738.493	10.96031044
738.674	10.97090349
738.856	10.98118404
739.037	10.99206812
739.219	10.99562077
739.4	10.9900412
739.581	10.98869451
739.763	10.9885975
739.944	11.00915758
740.125	11.00175591
740.307	11.0050621
740.488	10.99287593
740.669	10.979612
740.851	10.98018794
741.032	10.98401996
741.213	10.96669427
741.395	10.96793878
741.576	10.97847243
741.757	10.98742094
741.938	10.9787273
742.119	10.97434049
742.301	10.96420884
742.482	10.95588327
742.663	10.95200631
742.844	10.93525174
743.025	10.9269685
743.206	10.93140995
743.387	10.93182722
743.568	10.92026259
743.749	10.91258379
743.93	10.92048811
744.111	10.92553996
744.292	10.93362115
744.473	10.93420448
744.654	10.92489328
744.835	10.94237259
745.016	10.95287531
745.197	10.96305631
745.378	10.9525614
745.559	10.95918417
745.74	10.9568398
745.921	10.987588
746.102	10.99962257
746.282	11.02320292
746.463	11.01661131
746.644	11.02842668
746.825	11.03054425
747.006	11.0268165
747.186	11.02553597
747.367	11.03138537
747.548	11.03533938
747.728	11.04563049
747.909	11.05277159
748.09	11.05146455
748.27	11.05444793
748.451	11.04591732
748.632	11.03170152
748.812	11.04239597
748.993	11.04378286
749.173	11.05978449
749.354	11.05423886
749.535	11.04440509
749.715	11.02572408
749.896	11.02005188
750.076	11.01089487
750.257	11.02382027
750.437	11.03210539
750.618	11.04875944
750.798	11.04721366
750.978	11.07787083
751.159	11.07992518
751.339	11.07329898
751.52	11.08633629
751.7	11.08825628
751.88	11.08197763
752.061	11.08800843
752.241	11.10237765
752.421	11.10387031
752.601	11.10193518
752.782	11.09158442
752.962	11.09492854
753.142	11.09892799
753.322	11.11676005
753.503	11.13760077
753.683	11.15036237
753.863	11.16154186
754.043	11.17227443
754.223	11.17536082
754.403	11.1844946
754.583	11.19821438
754.764	11.16891161
754.944	11.17312657
755.124	11.17797907
755.304	11.16636844
755.484	11.17085238
755.664	11.18620048
755.844	11.20182483
756.024	11.22590288
756.204	11.25208056
756.384	11.26617424
756.564	11.27942077
756.743	11.26487348
756.923	11.26351938
757.103	11.27201119
757.283	11.25776465
757.463	11.26869929
757.643	11.2511643
757.823	11.25174961
758.002	11.25245993
758.182	11.26523307
758.362	11.26040759
758.542	11.2764977
758.721	11.28043517
758.901	11.32145512
759.081	11.31470059
759.261	11.30941804
759.44	11.33140769
759.62	11.32812012
759.8	11.31373116
759.979	11.29774121
760.159	11.29624421
760.338	11.29603677
760.518	11.2696756
760.698	11.30085765
760.877	11.31549446
761.057	11.33143409
761.236	11.32797345
761.416	11.3323124
761.595	11.33535404
761.775	11.33342417
761.954	11.31736966
762.133	11.32712283
762.313	11.30501212
762.492	11.31274974
762.672	11.2848921
762.851	11.2857659
763.03	11.25974464
763.21	11.25257275
763.389	11.23361291
763.568	11.22602822
763.748	11.21817949
763.927	11.20289328
764.106	11.21726259
764.286	11.22772342
764.465	11.20423654
764.644	11.17667569
764.823	11.16340602
765.002	11.15963604
765.182	11.15917456
765.361	11.14191397
765.54	11.11473001
765.719	11.12169512
765.898	11.10444522
766.077	11.1010155
766.256	11.100618
766.435	11.09147502
766.614	11.08048177
766.793	11.09711693
766.972	11.09068246
767.151	11.09210353
767.33	11.11073382
767.509	11.12118125
767.688	11.111903
767.867	11.09899845
768.046	11.09618877
768.225	11.09618798
768.404	11.12891066
768.583	11.13400933
768.762	11.11874082
768.94	11.12983342
769.119	11.10971743
769.298	11.13444062
769.477	11.11580744
769.656	11.12604888
769.834	11.13421636
770.013	11.13746923
770.192	11.12931224
770.37	11.11801481
770.549	11.11820315
770.728	11.1286431
770.906	11.14048143
771.085	11.12393094
771.264	11.11330641
771.442	11.14394846
771.621	11.14915915
771.799	11.15946206
771.978	11.16987925
772.157	11.16499199
772.335	11.15316776
772.514	11.1652962
772.692	11.17361922
772.871	11.22415781
773.049	11.22449716
773.228	11.22525767
773.406	11.22904668
773.584	11.23877604
773.763	11.23664903
773.941	11.26211273
774.119	11.29718701
774.298	11.31689742
774.476	11.30146049
774.655	11.30593751
774.833	11.34666928
775.011	11.34720095
775.189	11.34280489
775.368	11.34439411
775.546	11.35466277
775.724	11.35595143
775.902	11.36983467
776.08	11.38623169
776.259	11.39497414
776.437	11.41043575
776.615	11.40367801
776.793	11.42744368
776.971	11.44636779
777.149	11.46171452
777.327	11.4798764
777.505	11.50168349
777.683	11.52309758
777.861	11.54845061
778.04	11.56148538
778.218	11.59134316
778.395	11.58564434
778.573	11.56300478
778.751	11.60189023
778.929	11.62214684
779.107	11.64233569
779.285	11.66970413
779.463	11.69312017
779.641	11.6926205
779.819	11.70256939
779.997	11.72410551
780.174	11.71602953
780.352	11.7239213
780.53	11.7320281
780.708	11.77307011
780.886	11.7937463
781.063	11.79987545
781.241	11.82158818
781.419	11.82730613
781.596	11.82411076
781.774	11.85794524
781.952	11.87568661
782.129	11.92859592
782.307	11.93871901
782.485	11.95288947
782.662	11.96615316
782.84	11.99572583
783.017	12.01997771
783.195	12.03093306
783.372	12.05088934
783.55	12.0829864
783.727	12.1090059
783.905	12.12987507
784.082	12.15353895
784.26	12.17279514
784.437	12.19156268
784.615	12.23171631
784.792	12.28606606
784.969	12.30205447
785.147	12.33673917
785.324	12.3530217
785.501	12.35397896
785.679	12.38303189
785.856	12.38047459
786.033	12.43602131
786.211	12.46547935
786.388	12.51098812
786.565	12.5235453
786.742	12.51378664
786.92	12.55245448
787.097	12.59417596
787.274	12.61748841
787.451	12.6327473
787.628	12.65088459
787.805	12.69128169
787.982	12.71851806
788.16	12.72270194
788.337	12.73469037
788.514	12.72981672
788.691	12.77423119
788.868	12.79608821
789.045	12.80062824
789.222	12.81509069
789.399	12.83752426
789.576	12.8826836
789.753	12.89657637
789.93	12.9177573
790.106	12.89914078
790.283	12.91386147
790.46	12.93909642
790.637	12.94984721
790.814	12.97281887
790.991	13.00535202
791.168	13.05183881
791.344	13.09093723
791.521	13.12137442
791.698	13.13512323
791.875	13.16782308
792.051	13.1754448
792.228	13.20562363
792.405	13.22220285
792.581	13.25679023
792.758	13.30579111
792.935	13.33261768
793.111	13.3113283
793.288	13.34170035
793.465	13.37623686
793.641	13.39489356
793.818	13.43494671
793.994	13.4546695
794.171	13.51054501
794.347	13.5147903
794.524	13.52915506
794.7	13.50919445
794.877	13.49917794
795.053	13.4830138
795.23	13.47757599
795.406	13.52884668
795.583	13.51621354
795.759	13.539703
795.935	13.55460256
796.112	13.52622445
796.288	13.5127373
796.464	13.54398241
796.641	13.55310847
796.817	13.60443586
796.993	13.61251809
797.169	13.58881391
797.346	13.57812442
797.522	13.6111696
797.698	13.65309049
797.874	13.64506592
798.051	13.66984544
798.227	13.66456618
798.403	13.73319547
798.579	13.77193061
798.755	13.82583137
798.931	13.85878322
799.107	13.84827005
799.283	13.88986732
799.459	13.88047241
799.635	13.92656424
799.811	13.96652056
799.987	13.99018784
800.163	13.99343622
800.339	14.05799924
800.515	14.0616815
800.691	14.06029245
800.867	14.0927529
801.043	14.14613152
801.219	14.16684895
801.395	14.15848292
801.571	14.16746216
801.746	14.17678051
801.922	14.22206652
802.098	14.2454412
802.274	14.20806517
802.45	14.21518719
802.625	14.2111282
802.801	14.18970222
802.977	14.19427954
803.152	14.22328722
803.328	14.20697471
803.504	14.25064575
803.679	14.25145859
803.855	14.26380692
804.031	14.24142746
804.206	14.29316926
804.382	14.3319967
804.557	14.39505735
804.733	14.44681704
804.909	14.44755294
805.084	14.49001268
805.26	14.53155906
805.435	14.56578522
805.61	14.61132587
805.786	14.64729947
805.961	14.71914007
806.137	14.76350106
806.312	14.7976534
806.488	14.85386293
806.663	14.92380187
806.838	14.95229056
807.014	15.02959699
807.189	15.04357455
807.364	15.13481539
807.54	15.2191475
807.715	15.2432219
807.89	15.26093195
808.065	15.33252573
808.241	15.3609672
808.416	15.34241327
808.591	15.38488977
808.766	15.41522445
808.941	15.43803595
809.116	15.48317662
809.291	15.521455
809.467	15.53003927
809.642	15.60750827
809.817	15.64685809
809.992	15.67740275
810.167	15.73739266
810.342	15.73321333
810.517	15.75543753
810.692	15.77020968
810.867	15.76502367
811.042	15.76607459
811.217	15.73073553
811.392	15.74422833
811.567	15.80639299
811.741	15.77695904
811.916	15.82456211
812.091	15.8321626
812.266	15.8129268
812.441	15.84019275
812.616	15.8621628
812.79	15.91629526
812.965	15.8956152
813.14	15.87149523
813.315	15.85274249
813.489	15.86810948
813.664	15.84464091
813.839	15.8683828
814.013	15.89060031
814.188	15.95787457
814.363	15.89717778
814.537	15.95609693
814.712	15.90112588
814.887	15.89323807
815.061	15.96254626
815.236	15.91422074
815.41	15.89776904
815.585	15.83430348
815.759	15.89057138
815.934	15.90334315
816.108	15.91423436
816.283	15.86738442
816.457	15.87572186
816.631	15.85779012
816.806	15.92051864
816.98	15.94209359
817.155	15.92309182
817.329	15.98346012
817.503	15.93226044
817.678	15.90575544
817.852	15.89142725
818.026	15.95637568
818.201	16.00689341
818.375	16.05057595
818.549	16.07944993
818.723	16.10521149
818.897	16.14455477
819.072	16.14745349
819.246	16.13792768
819.42	16.1135048
819.594	16.10211547
819.768	16.08766029
819.942	16.13671436
820.116	16.05407543
820.29	16.00670281
820.465	15.99750852
820.639	15.97480025
820.813	15.9654846
820.987	15.92386331
821.161	15.93473714
821.335	15.91073414
821.509	15.91777257
821.682	15.91097416
821.856	15.87753649
822.03	15.88461261
822.204	15.88703539
822.378	15.80402682
822.552	15.71065675
822.726	15.74371641
822.9	15.80604853
823.073	15.75063869
823.247	15.80466537
823.421	15.76021929
823.595	15.78769625
823.768	15.84473878
823.942	15.89938241
824.116	15.86369932
824.289	15.87699896
824.463	15.87299711
824.637	15.92014313
824.81	15.89345229
824.984	16.02976932
825.158	16.0523138
825.331	16.02740151
825.505	16.02964906
825.678	16.00250439
825.852	16.06739182
826.025	16.15129548
826.199	16.22452591
826.372	16.21092103
826.546	16.1993687
826.719	16.21829761
826.893	16.19517296
827.066	16.24021053
827.24	16.22112003
827.413	16.17974803
827.586	16.17635709
827.76	16.26841976
827.933	16.29007396
828.106	16.35404509
828.28	16.34690521
828.453	16.34247216
828.626	16.26665586
828.799	16.22861186
828.973	16.21680196
829.146	16.17189302
829.319	16.21666818
829.492	16.1827425
829.665	16.09440551
829.839	16.09544738
830.012	16.10167082
830.185	16.07193951
830.358	16.02425715
830.531	15.96213661
830.704	15.9591865
830.877	15.94113165
831.05	15.99934146
831.223	15.96675317
831.396	15.83102721
831.569	15.74792786
831.742	15.72547691
831.915	15.7043915
832.088	15.72823759
832.261	15.77034241
832.434	15.74608833
832.607	15.73464172
832.779	15.77243247
832.952	15.71393961
833.125	15.66684304
833.298	15.73233248
833.471	15.69621271
833.643	15.71657323
833.816	15.71028011
833.989	15.72913301
834.162	15.74074388
834.334	15.74954003
834.507	15.80890588
834.68	15.77374266
834.852	15.78548871
835.025	15.87910517
835.198	15.85533412
835.37	15.80509176
835.543	15.81708771
835.715	15.79025267
835.888	15.76266163
836.061	15.80920806
836.233	15.8276951
836.406	15.78047243
836.578	15.80258266
836.751	15.72785049
836.923	15.73504392
837.095	15.78519868
837.268	15.76473187
837.44	15.8367968
837.613	15.90032798
837.785	15.9593073
837.957	15.93921187
838.13	15.82515272
838.302	15.84749066
838.474	15.89655633
838.647	15.82765923
838.819	15.93406248
838.991	15.93559407
839.163	15.95053099
839.336	15.95342089
839.508	16.02516536
839.68	15.97058058
839.852	15.99329913
840.024	16.01780128
840.196	16.05477753
840.368	16.1748557
840.541	16.10088004
840.713	16.12501561
840.885	16.10725698
841.057	16.05923743
841.229	16.17737145
841.401	16.16497015
841.573	16.24382796
841.745	16.24925555
841.917	16.25285661
842.089	16.27433862
842.261	16.32006855
842.432	16.27371632
842.604	16.35461905
842.776	16.35255244
842.948	16.44185501
843.12	16.33618502
843.292	16.38785199
843.464	16.40259698
843.635	16.34523863
843.807	16.32622967
843.979	16.407905
844.151	16.39467903
844.322	16.3599729
844.494	16.37573879
844.666	16.3831051
844.837	16.22341822
845.009	16.3106404
845.181	16.21454517
845.352	16.23786153
845.524	16.19973564
845.695	16.21976538
845.867	16.23212797
846.039	16.11814333
846.21	16.09059583
846.382	16.06793483
846.553	16.01759763
846.725	15.9902134
846.896	15.95526543
847.068	15.95556081
847.239	16.03463316
847.41	16.08429155
847.582	15.97957624
847.753	16.06041448
847.925	16.13364168
848.096	16.1397651
848.267	16.14538154
848.439	16.0527664
848.61	15.91980991
848.781	15.94028166
848.952	15.97993871
849.124	16.02884053
849.295	15.93093111
849.466	15.87087043
849.637	16.11036346
849.808	16.02085667
849.98	16.1351914
850.151	16.18530391
850.322	16.14611853
850.493	16.13996871
850.664	16.106015
850.835	16.14023536
851.006	16.09445645
851.177	16.04438555
851.348	15.96451765
851.519	15.90917781
851.69	15.85040071
851.861	15.92365687
852.032	15.98660322
852.203	16.03682824
852.374	16.06979476
852.545	15.95502895
852.716	15.92562183
852.887	15.96476379
853.057	16.04224005
853.228	15.99261815
853.399	16.03193202
853.57	15.96796688
853.741	15.8907394
853.911	15.95704542
854.082	15.95955787
854.253	16.06429625
854.424	16.077294
854.594	16.14603121
854.765	16.21209156
854.936	16.15116932
855.106	16.06908496
855.277	16.24430407
855.447	16.14085774
855.618	16.36518775
855.789	16.42958705
855.959	16.32560096
856.13	16.55032757
856.3	16.69564713
856.471	16.75957164
856.641	16.65698132
856.812	16.46339532
856.982	16.45804664
857.153	16.53015828
857.323	16.64667538
857.493	16.6736986
857.664	16.73179791
857.834	16.66356158
858.004	16.41392206
858.175	16.42000672
858.345	16.28959478
858.515	16.36665862
858.686	16.39110222
858.856	16.33754677
859.026	16.39429109
859.196	16.28019267
859.367	16.07996973
859.537	16.15676401
859.707	16.09869538
859.877	15.99327446
860.047	15.86840435
860.217	16.00603947
860.387	16.24279078
860.558	16.33453328
860.728	16.22134153
860.898	16.32599431
861.068	16.21155862
861.238	16.22401949
861.408	16.30093886
861.578	16.59084895
861.748	16.5634271
861.918	16.7230285
862.088	16.8489352
862.257	16.83114613
862.427	16.95888529
862.597	17.01847477
862.767	17.02484097
862.937	17.19395811
863.107	17.22943429
863.277	17.17199537
863.446	17.04900511
863.616	17.02555611
863.786	16.92394222
863.956	16.75190753
864.125	16.64404055
864.295	16.72750925
864.465	16.60446693
864.634	16.69296351
864.804	16.65780154
864.974	16.56926398
865.143	16.51643195
865.313	16.48457215
865.482	16.49282169
865.652	16.27622383
865.822	16.42997708
865.991	16.3444705
866.161	16.17740548
866.33	16.02414336
866.5	16.03150384
866.669	16.02223671
866.838	16.00750692
867.008	16.16907434
867.177	16.05810862
867.347	16.03198181
867.516	16.07007743
867.685	16.09004404
867.855	15.93352618
868.024	15.88872615
868.193	15.70701673
868.363	15.68297261
868.532	15.65460657
868.701	15.69929062
868.87	15.51932198
869.04	15.37796841
869.209	15.48578768
869.378	15.5616428
869.547	15.17066923
869.716	15.13006429
869.885	15.31606688
870.055	15.39170832
870.224	15.30948288
870.393	15.35752639
870.562	15.42498566
870.731	15.57658733
870.9	15.88146467
871.069	15.7762181
871.238	15.76952785
871.407	15.70282569
871.576	15.59649164
871.745	15.74013196
871.914	15.60431227
872.083	15.80666759
872.251	15.67052173
872.42	15.73674742
872.589	15.62379606
872.758	15.53783087
872.927	15.37712729
873.096	15.66778499
873.264	15.74296136
873.433	15.70412144
873.602	15.53221187
873.771	15.58494801
873.939	15.77450472
874.108	15.57419684
874.277	15.63689728
874.445	15.31864942
874.614	15.40811765
874.783	15.36416442
874.951	15.30224758
875.12	15.41721026
875.288	15.52030353
875.457	15.58722289
875.625	15.47271768
875.794	15.45471285
875.962	15.63605741
876.131	15.84388591
876.299	16.06872817
876.468	15.988874
876.636	15.8004021
876.805	15.57805008
876.973	15.31654716
877.141	15.59873852
877.31	15.61331625
877.478	15.17080949
877.647	15.10318914
877.815	15.1860651
877.983	15.06121312
878.151	15.20643858
878.32	15.57012921
878.488	15.86969481
878.656	15.8881134
878.824	15.91980267
878.992	16.10081886
879.161	16.16010249
879.329	16.04177294
879.497	15.82324706
879.665	15.4601034
879.833	15.62030853
880.001	15.52446615
880.169	15.54381138
880.337	15.88192504
880.505	16.09855642
880.673	15.85111952
880.841	15.79570302
881.009	16.07248328
881.177	16.02099687
881.345	15.73406619
881.513	15.88656955
881.681	15.62651402
881.849	15.4019231
882.017	15.4124655
882.185	15.30706187
882.352	15.24708793
882.52	14.96491628
882.688	14.49280185
882.856	14.68557342
883.024	14.71525796
883.191	14.74570115
883.359	14.19269248
883.527	14.21326217
883.694	14.36124649
883.862	14.26354098
884.03	14.15621855
884.197	13.69891034
884.365	13.89438084
884.533	13.75480125
884.7	13.89400932
884.868	14.04351717
885.035	13.96765575
885.203	14.38755224
885.37	14.2338087
885.538	14.00467687
885.705	13.87580735
885.873	13.73858745
886.04	13.85503674
886.208	14.09100568
886.375	13.93689986
886.542	13.96565178
886.71	14.39868104
886.877	14.88095733
