Data from claw1_Reflection_08-59-20-961.txt Node
Date: Wed Dec 06 08:59:20 AEST 2023
User: uqkchene_local
Spectrometer: USB4E02642
Trigger mode: 4
Integration Time (sec): 1.700000E-2
Scans to average: 10
Electric dark correction enabled: true
Nonlinearity correction enabled: false
Boxcar width: 10
XAxis mode: Wavelengths
Number of Pixels in Spectrum: 3648
>>>>>Begin Spectral Data<<<<<
179.217	138.37409576
179.432	103.2388664
179.647	245.81033618
179.862	245.88701685
180.077	1621.6
180.293	441.11842105
180.508	1191.42857143
180.723	231.67701863
180.938	-125.24797115
181.153	24.86317435
181.368	30.81761006
181.583	58.76433419
181.798	73.40913259
182.013	80.86225026
182.228	80.33790076
182.443	72.63258709
182.658	72.82302638
182.873	72.73159145
183.088	72.2058947
183.303	69.56827231
183.518	66.03773585
183.733	66.92934243
183.948	63.5976389
184.162	69.24252218
184.377	69.33638444
184.592	73.37508928
184.807	72.36026462
185.022	68.45359797
185.237	66.35402846
185.452	67.37576054
185.667	67.90580765
185.882	68.88366415
186.096	66.18695595
186.311	68.35437311
186.526	71.17508433
186.741	68.8153553
186.956	70.25573893
187.17	72.70523364
187.385	73.50936562
187.6	72.00780469
187.815	70.82838268
188.03	69.59645147
188.244	68.82729416
188.459	69.1573614
188.674	68.04928928
188.889	67.92957541
189.103	65.67056446
189.318	61.74714875
189.533	61.08017543
189.747	58.63866621
189.962	55.9819525
190.177	55.42869114
190.391	55.79610713
190.606	58.93338977
190.821	59.08106202
191.035	55.75256699
191.25	56.29677355
191.465	52.65351208
191.679	50.40016312
191.894	49.76303318
192.109	52.60321384
192.323	54.36636
192.538	57.50815333
192.752	57.64561387
192.967	59.76392337
193.181	58.79426115
193.396	57.80643306
193.611	60.55272863
193.825	62.06725791
194.04	63.15244314
194.254	64.2265381
194.469	66.83895905
194.683	65.36815254
194.898	67.38193611
195.112	65.6161704
195.327	62.89940564
195.541	62.74142216
195.756	63.56310385
195.97	63.64318153
196.184	65.31444339
196.399	63.70159594
196.613	63.4122906
196.828	63.62024568
197.042	61.62835168
197.257	60.74845126
197.471	57.34462093
197.685	58.9775001
197.9	58.99906871
198.114	57.49484161
198.328	56.07788252
198.543	56.8643682
198.757	55.74637283
198.971	55.40755382
199.186	56.47495837
199.4	55.06814846
199.614	55.50130627
199.829	55.63624223
200.043	56.23420213
200.257	53.07861805
200.471	54.1226843
200.686	52.12204348
200.9	53.70346735
201.114	54.17392361
201.328	53.66601617
201.543	54.36333589
201.757	55.92102618
201.971	57.19326065
202.185	56.75654399
202.399	56.58729853
202.614	55.30442263
202.828	54.62455441
203.042	53.14857641
203.256	54.75898009
203.47	54.702851
203.684	56.16627337
203.899	56.77661114
204.113	56.99673718
204.327	54.54645733
204.541	54.02891404
204.755	55.15315113
204.969	54.99943381
205.183	56.80506845
205.397	56.60384263
205.611	56.94460031
205.825	58.60448997
206.039	56.32011406
206.253	54.97687293
206.467	55.87358817
206.681	55.7085527
206.895	57.24764493
207.109	59.66380304
207.323	61.8957202
207.537	61.65248728
207.751	60.94058117
207.965	60.9516421
208.179	58.41524498
208.393	57.11121955
208.607	57.68756769
208.821	59.17864476
209.035	59.39939491
209.249	62.73843742
209.463	63.90215018
209.677	63.08250361
209.891	61.95289977
210.104	61.72620619
210.318	60.30320258
210.532	63.02463242
210.746	64.33126064
210.96	64.65534075
211.174	64.07688456
211.387	63.57285821
211.601	61.70382483
211.815	61.12903853
212.029	61.66583426
212.243	62.92148125
212.456	62.55315766
212.67	64.62437059
212.884	63.0981631
213.098	61.03251812
213.311	64.07883065
213.525	61.6349141
213.739	59.78182645
213.953	57.23142825
214.166	57.69387528
214.38	59.40367832
214.594	57.46752002
214.807	58.07863586
215.021	56.6750435
215.235	55.81404103
215.448	54.19427332
215.662	53.70201278
215.876	53.49369989
216.089	55.86751652
216.303	57.68667063
216.516	60.53049103
216.73	60.17429194
216.944	57.58870298
217.157	55.28670738
217.371	55.29594411
217.584	53.58456246
217.798	52.04770744
218.011	54.03229103
218.225	54.9375124
218.439	55.05500262
218.652	50.96463678
218.866	51.00356556
219.079	52.01278204
219.293	51.74434293
219.506	50.83013563
219.719	52.44123664
219.933	52.39168827
220.146	53.00041025
220.36	53.42078858
220.573	53.14959162
220.787	52.5384758
221	51.18499382
221.214	48.87178126
221.427	50.60527209
221.64	52.03230148
221.854	51.71180974
222.067	51.66137728
222.28	52.41731271
222.494	53.24083021
222.707	52.10648239
222.92	53.70720599
223.134	53.04184738
223.347	52.61658537
223.56	52.00282475
223.774	50.465233
223.987	50.62761506
224.2	49.35008149
224.414	51.76428372
224.627	52.37713139
224.84	50.79371301
225.053	50.48201634
225.267	48.51055435
225.48	45.64196541
225.693	47.1012577
225.906	46.90554985
226.119	46.42349779
226.333	47.77392795
226.546	50.87706286
226.759	51.05530902
226.972	51.15011885
227.185	50.80115866
227.398	49.50130483
227.612	52.36458669
227.825	51.62800521
228.038	53.09991939
228.251	54.80214128
228.464	54.4346163
228.677	56.0459311
228.89	55.2744869
229.103	53.81580245
229.316	54.74762205
229.529	54.88947421
229.743	56.63562473
229.956	58.07037832
230.169	59.75597757
230.382	59.98432039
230.595	59.18539417
230.808	59.5063219
231.021	59.40333231
231.234	58.04161906
231.447	55.85376518
231.66	55.07463183
231.872	55.84663015
232.085	55.50172302
232.298	55.66150996
232.511	55.16804276
232.724	55.27725644
232.937	58.03890295
233.15	57.20467794
233.363	56.25686254
233.576	55.4787104
233.789	54.84371146
234.002	53.08105075
234.214	51.42210618
234.427	52.97474374
234.64	52.15925624
234.853	52.28812041
235.066	53.08288952
235.279	53.33080608
235.491	53.77527862
235.704	52.88091332
235.917	52.20121607
236.13	52.73838387
236.342	50.23013607
236.555	49.84599763
236.768	51.5654087
236.981	50.5065123
237.193	50.27713393
237.406	47.93190629
237.619	44.65977748
237.832	43.45581537
238.044	46.66984635
238.257	46.98886552
238.47	46.47830064
238.682	47.50618791
238.895	47.55494974
239.108	46.81683623
239.32	46.96292312
239.533	47.27291194
239.746	46.99962216
239.958	47.85948346
240.171	48.53202382
240.383	52.59470951
240.596	52.95472791
240.808	56.2900298
241.021	54.46507806
241.234	51.99868183
241.446	52.82329681
241.659	51.3172467
241.871	51.65104494
242.084	54.14736704
242.296	55.63998595
242.509	55.05309819
242.721	54.21239759
242.934	54.96785228
243.146	53.40392381
243.359	49.65900079
243.571	50.17885973
243.784	49.31273137
243.996	48.41693348
244.208	49.03612506
244.421	48.80635734
244.633	47.86686936
244.846	45.32322608
245.058	45.24809956
245.27	43.3283738
245.483	44.8481083
245.695	44.9224005
245.907	44.47951538
246.12	43.96521406
246.332	45.50700478
246.544	45.7446469
246.757	45.00048649
246.969	43.43031057
247.181	43.55377196
247.394	44.53781513
247.606	45.66970001
247.818	47.93993334
248.03	50.15380362
248.243	50.11164932
248.455	50.33061457
248.667	49.36334024
248.879	48.71227682
249.092	50.14024088
249.304	51.18972134
249.516	48.93974527
249.728	48.65978679
249.94	50.44840773
250.153	50.34986106
250.365	52.01451409
250.577	53.74935886
250.789	51.98090031
251.001	51.63650101
251.213	52.08609159
251.425	50.98680811
251.637	51.83462883
251.85	51.26350213
252.062	52.16326531
252.274	51.84641961
252.486	51.24096966
252.698	52.0007497
252.91	50.71631409
253.122	52.15521361
253.334	50.48938315
253.546	50.08482443
253.758	49.95014955
253.97	52.48726352
254.182	52.28302432
254.394	49.89179936
254.606	49.81974082
254.818	48.84170506
255.03	48.23166934
255.242	49.48074356
255.454	48.19854034
255.666	47.18261156
255.877	48.80715381
256.089	50.98893298
256.301	50.06506078
256.513	48.88979617
256.725	48.98257169
256.937	49.25487443
257.149	50.91718498
257.361	51.57960393
257.572	48.99958515
257.784	49.91411886
257.996	49.22664987
258.208	49.46997558
258.42	47.12813413
258.631	48.09203318
258.843	48.99584596
259.055	50.35371797
259.267	50.20032922
259.479	49.03752856
259.69	46.8211324
259.902	48.83061658
260.114	49.50114159
260.325	49.04772295
260.537	45.06221953
260.749	46.39961545
260.961	46.1278824
261.172	46.15706066
261.384	44.57407
261.596	42.91512792
261.807	43.50210261
262.019	45.66968613
262.23	45.03259274
262.442	46.17398103
262.654	43.64062659
262.865	45.84073168
263.077	45.01526794
263.288	45.87800614
263.5	44.76749878
263.712	46.1015725
263.923	46.62602825
264.135	47.22870191
264.346	45.70870185
264.558	45.72431078
264.769	47.05472406
264.981	48.48277436
265.192	48.40686678
265.404	48.61005268
265.615	48.94191213
265.827	47.50441181
266.038	46.45624103
266.25	45.93025071
266.461	45.24674013
266.673	45.8763686
266.884	46.61046058
267.095	48.29738034
267.307	47.32140008
267.518	47.8777859
267.73	46.04355775
267.941	47.3704232
268.152	44.79977492
268.364	44.82279361
268.575	46.29747314
268.786	45.21952848
268.998	43.96317221
269.209	43.06947077
269.42	42.11183149
269.632	41.43693325
269.843	40.07319591
270.054	40.53554371
270.265	39.81381916
270.477	41.02199498
270.688	41.48959004
270.899	41.95865932
271.11	41.91165153
271.322	42.41429054
271.533	42.54032871
271.744	43.16497104
271.955	41.96283973
272.166	41.92534838
272.378	39.93172035
272.589	39.43158969
272.8	40.65787479
273.011	39.75603241
273.222	43.62650709
273.433	43.99716052
273.644	44.11339141
273.856	44.5305921
274.067	44.12130683
274.278	45.09141892
274.489	43.5531995
274.7	45.84943446
274.911	45.58994912
275.122	46.54197357
275.333	46.85303298
275.544	47.41892875
275.755	46.09978354
275.966	44.8769887
276.177	43.88418732
276.388	44.69257149
276.599	44.92849104
276.81	45.70113295
277.021	47.42157697
277.232	44.79465138
277.443	44.15843751
277.654	42.56546346
277.865	43.24642926
278.076	41.92221079
278.287	41.94356653
278.497	41.90982186
278.708	41.04888588
278.919	41.1106401
279.13	40.08869308
279.341	38.30405068
279.552	36.79857527
279.763	36.04209118
279.973	34.21922879
280.184	33.66734072
280.395	34.87620782
280.606	35.22359324
280.817	35.4582639
281.027	34.44649501
281.238	33.73275341
281.449	33.71517834
281.66	33.98813178
281.87	34.57889016
282.081	32.72938582
282.292	31.76948759
282.503	32.69593094
282.713	32.8807249
282.924	32.6107993
283.135	32.79078024
283.345	33.7248824
283.556	34.72114172
283.767	35.00172318
283.977	34.72875963
284.188	35.35915997
284.399	35.35815079
284.609	34.21743484
284.82	33.52884216
285.03	33.5501116
285.241	33.00150417
285.451	35.89878464
285.662	35.73026261
285.873	34.8879417
286.083	36.42859098
286.294	36.95251204
286.504	37.9886601
286.715	38.10291586
286.925	37.28532158
287.136	37.72254684
287.346	37.82481084
287.557	40.31465363
287.767	39.56664189
287.978	37.79852659
288.188	39.06947449
288.399	39.70560735
288.609	38.25301998
288.819	36.81849818
289.03	37.03505962
289.24	35.49865297
289.451	36.00887465
289.661	37.34957193
289.871	34.81811433
290.082	34.67789773
290.292	35.41819213
290.502	34.81267085
290.713	33.72189468
290.923	32.66786451
291.133	32.79789278
291.344	33.18169138
291.554	33.25258432
291.764	32.81799305
291.974	31.92003646
292.185	30.57579682
292.395	29.64868328
292.605	29.1995366
292.815	28.22487907
293.026	27.78421137
293.236	28.85665558
293.446	28.52659371
293.656	29.14903397
293.866	27.4820542
294.077	26.27662873
294.287	25.93881275
294.497	25.48871266
294.707	24.42959354
294.917	23.8075563
295.127	22.56398874
295.337	21.64800301
295.548	21.76233858
295.758	20.83131374
295.968	19.80759999
296.178	18.92286205
296.388	18.00914084
296.598	17.86084247
296.808	17.58904684
297.018	16.62407733
297.228	16.20608993
297.438	15.62372008
297.648	15.02032193
297.858	14.72550142
298.068	13.69008057
298.278	13.37824339
298.488	13.43321005
298.698	13.23977367
298.908	12.97785368
299.118	12.53457551
299.328	12.08044465
299.538	12.05525996
299.748	12.01938576
299.957	11.43073531
300.167	11.0658119
300.377	10.75042636
300.587	10.63712931
300.797	10.39871937
301.007	10.35481458
301.217	10.14091717
301.426	10.10592213
301.636	9.97736968
301.846	9.92454687
302.056	9.70641216
302.266	9.47876576
302.475	9.54521157
302.685	9.39861365
302.895	9.02280622
303.105	8.90275287
303.314	8.78450648
303.524	8.69493617
303.734	8.72398596
303.944	8.68279449
304.153	8.50510111
304.363	8.35902914
304.573	8.26032266
304.782	8.22338037
304.992	8.23484784
305.202	8.18785505
305.411	8.08484435
305.621	8.06089273
305.831	7.97651199
306.04	7.90204571
306.25	7.86574757
306.459	7.85044997
306.669	7.8329018
306.878	7.77210638
307.088	7.71825416
307.298	7.65013722
307.507	7.55433906
307.717	7.52632041
307.926	7.47681821
308.136	7.42338078
308.345	7.41291589
308.555	7.43625252
308.764	7.4437135
308.974	7.45328286
309.183	7.43828665
309.392	7.35334951
309.602	7.3083116
309.811	7.24286642
310.021	7.16046105
310.23	7.16440528
310.44	7.13771525
310.649	7.09643237
310.858	7.07805131
311.068	7.05445372
311.277	7.05370936
311.486	7.04676838
311.696	7.058208
311.905	7.0880496
312.114	7.07087057
312.324	7.09592201
312.533	7.06801079
312.742	7.00740235
312.952	6.94007222
313.161	6.92364632
313.37	6.92460828
313.579	6.89367285
313.789	6.91384256
313.998	6.92403705
314.207	6.94053651
314.416	6.96216465
314.625	6.9285332
314.835	6.92092433
315.044	6.9270898
315.253	6.89530305
315.462	6.88418352
315.671	6.89316857
315.88	6.90279784
316.09	6.87885603
316.299	6.87494836
316.508	6.84154283
316.717	6.81609473
316.926	6.7839063
317.135	6.7688391
317.344	6.77666183
317.553	6.77680954
317.762	6.75615386
317.971	6.75234655
318.18	6.71978512
318.389	6.70725893
318.598	6.69887056
318.807	6.69764216
319.016	6.70438469
319.225	6.71546091
319.434	6.70899511
319.643	6.71956476
319.852	6.70916514
320.061	6.67192546
320.27	6.64854271
320.479	6.65628403
320.688	6.62014512
320.897	6.61817087
321.105	6.60990953
321.314	6.60882648
321.523	6.63108121
321.732	6.63719045
321.941	6.63972481
322.15	6.63676763
322.359	6.63996954
322.567	6.65669198
322.776	6.64583934
322.985	6.64931015
323.194	6.64514799
323.403	6.64320888
323.611	6.62250762
323.82	6.60413834
324.029	6.59003248
324.237	6.59708307
324.446	6.60444527
324.655	6.60340032
324.864	6.59625756
325.072	6.58761469
325.281	6.58824854
325.49	6.57699784
325.698	6.57884553
325.907	6.56375989
326.116	6.55749626
326.324	6.53996304
326.533	6.54290993
326.741	6.53221247
326.95	6.52594298
327.159	6.51187513
327.367	6.49540151
327.576	6.47902828
327.784	6.45355164
327.993	6.46293352
328.201	6.46588768
328.41	6.45874604
328.618	6.44374797
328.827	6.44143434
329.035	6.4467238
329.244	6.46189656
329.452	6.47328446
329.661	6.48032772
329.869	6.46628401
330.078	6.47413873
330.286	6.47924172
330.495	6.47180284
330.703	6.47762731
330.911	6.46385853
331.12	6.45284389
331.328	6.44229215
331.537	6.44394954
331.745	6.45385291
331.953	6.45533768
332.162	6.47084616
332.37	6.45804129
332.578	6.46104354
332.787	6.47633852
332.995	6.48752176
333.203	6.47335324
333.411	6.46536202
333.62	6.44421808
333.828	6.44741645
334.036	6.44575456
334.244	6.47443043
334.453	6.4643112
334.661	6.46747721
334.869	6.4719132
335.077	6.46587578
335.285	6.47505753
335.494	6.48463811
335.702	6.48921467
335.91	6.49053635
336.118	6.47831747
336.326	6.48319938
336.534	6.49566947
336.742	6.48836417
336.951	6.48940457
337.159	6.48401987
337.367	6.47453208
337.575	6.4967354
337.783	6.49837914
337.991	6.50501836
338.199	6.48832134
338.407	6.48075218
338.615	6.47993565
338.823	6.49478381
339.031	6.48447511
339.239	6.48922336
339.447	6.49574933
339.655	6.4981775
339.863	6.49821804
340.071	6.49590688
340.279	6.50290708
340.487	6.50971212
340.695	6.51398634
340.903	6.49763068
341.11	6.51547295
341.318	6.51677758
341.526	6.51576876
341.734	6.51464345
341.942	6.49968708
342.15	6.49850067
342.358	6.48986686
342.565	6.50454338
342.773	6.50796395
342.981	6.50662126
343.189	6.49615862
343.397	6.49709129
343.604	6.49846815
343.812	6.49423443
344.02	6.49122072
344.228	6.49710044
344.435	6.49326781
344.643	6.48302004
344.851	6.47353812
345.058	6.47517468
345.266	6.46042405
345.474	6.44808126
345.681	6.44432811
345.889	6.45421611
346.097	6.45992723
346.304	6.46363396
346.512	6.45688258
346.72	6.46587763
346.927	6.4721504
347.135	6.47808085
347.342	6.46644579
347.55	6.45910486
347.758	6.46672339
347.965	6.46594155
348.173	6.46439422
348.38	6.46662211
348.588	6.4658498
348.795	6.47011993
349.003	6.47962873
349.21	6.47938466
349.418	6.48057109
349.625	6.4992686
349.833	6.51204212
350.04	6.50853049
350.247	6.50088273
350.455	6.49953793
350.662	6.50662675
350.87	6.51802631
351.077	6.51605835
351.284	6.50256174
351.492	6.48745775
351.699	6.49678271
351.906	6.50316956
352.114	6.49670952
352.321	6.50095109
352.528	6.51154893
352.736	6.51388202
352.943	6.50688569
353.15	6.5009173
353.358	6.49754637
353.565	6.51525542
353.772	6.50627678
353.979	6.51708079
354.187	6.51483289
354.394	6.51576987
354.601	6.51583248
354.808	6.51902232
355.015	6.49340572
355.223	6.48768218
355.43	6.49030644
355.637	6.49831614
355.844	6.49927555
356.051	6.4961886
356.258	6.50115167
356.465	6.48234871
356.673	6.48073053
356.88	6.46652765
357.087	6.47161861
357.294	6.48045919
357.501	6.48974912
357.708	6.49204114
357.915	6.47457027
358.122	6.47562197
358.329	6.46001006
358.536	6.45444805
358.743	6.45826491
358.95	6.46066724
359.157	6.45659289
359.364	6.47456923
359.571	6.48900533
359.778	6.47983527
359.985	6.47616648
360.192	6.48920531
360.399	6.48929055
360.606	6.50053664
360.812	6.5122894
361.019	6.51436578
361.226	6.52315118
361.433	6.51612217
361.64	6.50610454
361.847	6.5065272
362.054	6.51545212
362.26	6.52820254
362.467	6.52881616
362.674	6.53000038
362.881	6.52572682
363.088	6.52436634
363.294	6.53219875
363.501	6.5377401
363.708	6.52648658
363.915	6.51288674
364.121	6.52495948
364.328	6.53211574
364.535	6.52438869
364.741	6.53109677
364.948	6.51282385
365.155	6.50935545
365.361	6.50240501
365.568	6.50191821
365.775	6.49934786
365.981	6.50255221
366.188	6.49018082
366.395	6.47885231
366.601	6.47759009
366.808	6.49188486
367.014	6.49004978
367.221	6.48958408
367.427	6.48105984
367.634	6.47222779
367.84	6.4605224
368.047	6.46886409
368.254	6.46752514
368.46	6.46036878
368.667	6.45371458
368.873	6.45594381
369.079	6.44380775
369.286	6.44331066
369.492	6.4452635
369.699	6.45417578
369.905	6.44207312
370.112	6.45359397
370.318	6.4516159
370.524	6.46366891
370.731	6.46783759
370.937	6.46867397
371.144	6.44592972
371.35	6.45179424
371.556	6.44926595
371.763	6.45745361
371.969	6.46110916
372.175	6.46469638
372.381	6.45762674
372.588	6.465046
372.794	6.47615585
373	6.47174207
373.206	6.47253555
373.413	6.47441266
373.619	6.48013153
373.825	6.49018193
374.031	6.47478773
374.238	6.48454704
374.444	6.47663531
374.65	6.47873755
374.856	6.48112664
375.062	6.48623506
375.268	6.48392238
375.475	6.4969927
375.681	6.50479973
375.887	6.5206253
376.093	6.52649893
376.299	6.51363903
376.505	6.52448676
376.711	6.54354506
376.917	6.54312018
377.123	6.53621188
377.329	6.54463523
377.535	6.55010386
377.741	6.54785704
377.947	6.54070478
378.153	6.53413502
378.359	6.54265211
378.565	6.53631163
378.771	6.5437097
378.977	6.55149164
379.183	6.54957297
379.389	6.54127211
379.595	6.53608491
379.801	6.5375016
380.007	6.5205408
380.213	6.51614916
380.418	6.52171439
380.624	6.5330309
380.83	6.53554854
381.036	6.51860963
381.242	6.52451821
381.448	6.53299708
381.653	6.53889898
381.859	6.53960051
382.065	6.54228966
382.271	6.55203153
382.476	6.55777719
382.682	6.55624346
382.888	6.57607525
383.094	6.57407536
383.299	6.58065012
383.505	6.5737515
383.711	6.58280538
383.916	6.5885296
384.122	6.59035738
384.328	6.60878884
384.533	6.61425542
384.739	6.60912118
384.945	6.61454529
385.15	6.60417269
385.356	6.61163252
385.562	6.61721978
385.767	6.61583531
385.973	6.61875545
386.178	6.61325946
386.384	6.61592335
386.589	6.62656643
386.795	6.62562343
387	6.63024731
387.206	6.62638901
387.411	6.61373759
387.617	6.61359238
387.822	6.62159382
388.028	6.62893779
388.233	6.64963329
388.439	6.64924671
388.644	6.64015912
388.85	6.63157387
389.055	6.62400724
389.26	6.62326665
389.466	6.62994065
389.671	6.62241824
389.877	6.61254851
390.082	6.60595771
390.287	6.59425699
390.493	6.60109354
390.698	6.59559713
390.903	6.58740935
391.109	6.59143596
391.314	6.58976598
391.519	6.58728024
391.724	6.58956724
391.93	6.58778684
392.135	6.58693584
392.34	6.58370133
392.545	6.57180412
392.751	6.57091439
392.956	6.57650962
393.161	6.57688179
393.366	6.57957122
393.571	6.57997632
393.776	6.58192645
393.982	6.5840366
394.187	6.58978674
394.392	6.59160929
394.597	6.59479485
394.802	6.58827209
395.007	6.59293796
395.212	6.59239817
395.417	6.59510566
395.622	6.59932513
395.827	6.59757253
396.032	6.60234042
396.237	6.59520703
396.442	6.59347777
396.647	6.59374934
396.852	6.5909096
397.057	6.59656356
397.262	6.59358155
397.467	6.5936399
397.672	6.60449632
397.877	6.59852254
398.082	6.59491346
398.287	6.59820614
398.492	6.59606398
398.697	6.59669469
398.902	6.59997255
399.107	6.60409625
399.311	6.6063337
399.516	6.61402661
399.721	6.61736409
399.926	6.61880167
400.131	6.62087582
400.336	6.63030372
400.54	6.63745545
400.745	6.64445625
400.95	6.64153484
401.155	6.63945694
401.359	6.63746419
401.564	6.63909567
401.769	6.64715801
401.974	6.64923571
402.178	6.65199962
402.383	6.66246807
402.588	6.66301672
402.792	6.66683989
402.997	6.67416123
403.202	6.67658929
403.406	6.67899524
403.611	6.67601264
403.815	6.6703743
404.02	6.6702433
404.225	6.66944864
404.429	6.66924293
404.634	6.66386524
404.838	6.66626094
405.043	6.66948472
405.247	6.66661526
405.452	6.66956312
405.656	6.6710618
405.861	6.67424956
406.065	6.67643706
406.27	6.66780024
406.474	6.67053355
406.679	6.6682259
406.883	6.67291096
407.088	6.67588941
407.292	6.67014433
407.497	6.66969391
407.701	6.67224203
407.905	6.67475471
408.11	6.67495787
408.314	6.67671197
408.518	6.68299448
408.723	6.68192635
408.927	6.68732584
409.131	6.6922642
409.336	6.69131927
409.54	6.69987298
409.744	6.69866642
409.949	6.70207357
410.153	6.70221491
410.357	6.69374373
410.561	6.69304215
410.766	6.69965392
410.97	6.699873
411.174	6.701392
411.378	6.69625149
411.582	6.70192156
411.787	6.70332033
411.991	6.71012896
412.195	6.70890704
412.399	6.71568095
412.603	6.71385329
412.807	6.71396493
413.011	6.72028915
413.215	6.71846561
413.419	6.71185412
413.624	6.70853507
413.828	6.71804717
414.032	6.71637254
414.236	6.71439965
414.44	6.72378786
414.644	6.73479756
414.848	6.74531023
415.052	6.749305
415.256	6.75569495
415.46	6.75705102
415.664	6.76190792
415.868	6.76299499
416.072	6.77190596
416.275	6.77092802
416.479	6.7846403
416.683	6.7812287
416.887	6.78017429
417.091	6.78223041
417.295	6.78669777
417.499	6.79145678
417.703	6.80154155
417.906	6.80822592
418.11	6.80079156
418.314	6.81593709
418.518	6.82151818
418.722	6.82529399
418.925	6.82648302
419.129	6.82729249
419.333	6.82835712
419.537	6.8211691
419.74	6.8225904
419.944	6.82268304
420.148	6.82452285
420.352	6.81887448
420.555	6.81610876
420.759	6.81216304
420.963	6.82027713
421.166	6.82212196
421.37	6.81969989
421.573	6.82047042
421.777	6.82313376
421.981	6.82147032
422.184	6.81718135
422.388	6.82164961
422.591	6.82757085
422.795	6.83442308
422.999	6.83337111
423.202	6.83475119
423.406	6.84068424
423.609	6.84682916
423.813	6.85391742
424.016	6.85958659
424.22	6.86651212
424.423	6.87145065
424.627	6.88056979
424.83	6.88355474
425.033	6.88806997
425.237	6.89332182
425.44	6.89757869
425.644	6.90885978
425.847	6.91495869
426.05	6.91795871
426.254	6.92025471
426.457	6.92159025
426.66	6.91806548
426.864	6.9166196
427.067	6.91786528
427.27	6.91832286
427.474	6.9193184
427.677	6.914282
427.88	6.91406732
428.084	6.92064063
428.287	6.91831711
428.49	6.92215842
428.693	6.92662615
428.896	6.92594205
429.1	6.93372818
429.303	6.93928331
429.506	6.93567099
429.709	6.93616216
429.912	6.93463278
430.116	6.92992932
430.319	6.930651
430.522	6.93304749
430.725	6.94170528
430.928	6.95229548
431.131	6.95367343
431.334	6.94600754
431.537	6.95033292
431.74	6.95953024
431.943	6.96275477
432.146	6.97087422
432.349	6.9749305
432.552	6.98096541
432.755	6.98358537
432.958	6.97917988
433.161	6.97591716
433.364	6.97962365
433.567	6.97962298
433.77	6.98372068
433.973	6.99264642
434.176	7.00449491
434.379	7.02103983
434.582	7.02211822
434.785	7.02052481
434.988	7.02032557
435.19	7.01807656
435.393	7.02012669
435.596	7.02661222
435.799	7.02682958
436.002	7.02648519
436.205	7.03395309
436.407	7.03297148
436.61	7.0303566
436.813	7.02877156
437.016	7.03104322
437.218	7.03629373
437.421	7.04202507
437.624	7.04590642
437.827	7.05561302
438.029	7.06361838
438.232	7.06640331
438.435	7.05956556
438.637	7.04900773
438.84	7.0560186
439.043	7.0666057
439.245	7.0699896
439.448	7.07679483
439.65	7.0841649
439.853	7.09020943
440.056	7.09484175
440.258	7.09682114
440.461	7.09864135
440.663	7.09768093
440.866	7.10924855
441.068	7.11644957
441.271	7.12317707
441.473	7.12579125
441.676	7.13047419
441.878	7.1359712
442.081	7.13952759
442.283	7.13902765
442.486	7.14738048
442.688	7.14969365
442.89	7.15802834
443.093	7.16269109
443.295	7.16200659
443.498	7.16808698
443.7	7.17365444
443.902	7.17282321
444.105	7.18324619
444.307	7.19116922
444.509	7.19919415
444.712	7.20343389
444.914	7.20875738
445.116	7.21261987
445.319	7.21327394
445.521	7.22176202
445.723	7.22424774
445.925	7.23790675
446.128	7.24434441
446.33	7.24848278
446.532	7.25256433
446.734	7.24812275
446.936	7.25633628
447.139	7.25799914
447.341	7.26076101
447.543	7.27109166
447.745	7.27316492
447.947	7.28063471
448.149	7.28732942
448.351	7.2810357
448.553	7.27462708
448.755	7.27578924
448.958	7.27969959
449.16	7.28257328
449.362	7.28009428
449.564	7.28769978
449.766	7.28099851
449.968	7.29008726
450.17	7.28199748
450.372	7.2781985
450.574	7.27346813
450.776	7.28126663
450.978	7.28616063
451.179	7.28958071
451.381	7.29546423
451.583	7.29886476
451.785	7.29596524
451.987	7.29787366
452.189	7.29835939
452.391	7.29793228
452.593	7.30649536
452.795	7.31461269
452.996	7.31111138
453.198	7.3127811
453.4	7.31264556
453.602	7.30639291
453.804	7.31003265
454.005	7.31466856
454.207	7.31782135
454.409	7.3192246
454.611	7.32209858
454.812	7.32726141
455.014	7.32756643
455.216	7.33533727
455.417	7.3386454
455.619	7.3390875
455.821	7.34185687
456.022	7.34851269
456.224	7.35436377
456.426	7.35293782
456.627	7.35523389
456.829	7.35348532
457.031	7.35897667
457.232	7.36862863
457.434	7.37112712
457.635	7.37645046
457.837	7.38781673
458.038	7.39024255
458.24	7.38778695
458.441	7.39239655
458.643	7.39806697
458.844	7.40408774
459.046	7.40956747
459.247	7.41526013
459.449	7.4155884
459.65	7.41798617
459.852	7.42362121
460.053	7.43471548
460.254	7.42859433
460.456	7.43077667
460.657	7.4395366
460.859	7.44165952
461.06	7.44352088
461.261	7.44641742
461.463	7.44430043
461.664	7.44402386
461.865	7.44401653
462.066	7.44719551
462.268	7.45195788
462.469	7.46080117
462.67	7.46134067
462.872	7.46623572
463.073	7.46386029
463.274	7.46724807
463.475	7.47229166
463.676	7.47152294
463.878	7.47735898
464.079	7.4740876
464.28	7.46371317
464.481	7.47253008
464.682	7.481179
464.883	7.47966729
465.085	7.48112621
465.286	7.48393593
465.487	7.48172534
465.688	7.48789198
465.889	7.49247585
466.09	7.50276865
466.291	7.50802395
466.492	7.51087866
466.693	7.51136539
466.894	7.51725428
467.095	7.52218438
467.296	7.5284019
467.497	7.53075129
467.698	7.52584797
467.899	7.52996936
468.1	7.52681285
468.301	7.53773816
468.502	7.54266424
468.703	7.54914068
468.903	7.54462452
469.104	7.55069482
469.305	7.55540182
469.506	7.56280574
469.707	7.56598071
469.908	7.56772439
470.109	7.57234836
470.309	7.56965164
470.51	7.57291309
470.711	7.57503515
470.912	7.58472661
471.112	7.58872493
471.313	7.59241702
471.514	7.59956699
471.715	7.60174239
471.915	7.60604953
472.116	7.61166453
472.317	7.61453625
472.517	7.61314685
472.718	7.62134947
472.919	7.61897907
473.119	7.6266019
473.32	7.62675313
473.521	7.63523239
473.721	7.64065772
473.922	7.64766534
474.122	7.65826453
474.323	7.6616855
474.523	7.6697113
474.724	7.6703835
474.925	7.67314177
475.125	7.67324643
475.326	7.67397449
475.526	7.67750845
475.727	7.67794009
475.927	7.68372801
476.127	7.69208021
476.328	7.69868232
476.528	7.70363003
476.729	7.71370268
476.929	7.71775649
477.13	7.72918945
477.33	7.73065623
477.53	7.74330781
477.731	7.74252068
477.931	7.74350286
478.131	7.7507076
478.332	7.7488898
478.532	7.75414568
478.732	7.75879767
478.933	7.76881558
479.133	7.77721248
479.333	7.78284397
479.533	7.79095309
479.734	7.79738754
479.934	7.80210276
480.134	7.80698596
480.334	7.81038236
480.534	7.81195509
480.735	7.82275083
480.935	7.82454358
481.135	7.82650321
481.335	7.82912067
481.535	7.83876453
481.735	7.84107231
481.935	7.84998614
482.136	7.85803138
482.336	7.86087386
482.536	7.86602636
482.736	7.87450583
482.936	7.87781973
483.136	7.88562398
483.336	7.88754696
483.536	7.89159545
483.736	7.8949757
483.936	7.89508827
484.136	7.90098571
484.336	7.90376879
484.536	7.91131917
484.736	7.91677929
484.936	7.91893538
485.135	7.92550415
485.335	7.93495404
485.535	7.94180486
485.735	7.94518888
485.935	7.94692474
486.135	7.95403823
486.335	7.95899315
486.534	7.96439504
486.734	7.97134501
486.934	7.97838027
487.134	7.98759966
487.334	7.9881583
487.533	7.99705322
487.733	8.00587812
487.933	8.00904769
488.133	8.02307338
488.332	8.02867167
488.532	8.0366692
488.732	8.04148408
488.931	8.05124078
489.131	8.05796853
489.331	8.07075285
489.53	8.07597299
489.73	8.08325722
489.93	8.09190636
490.129	8.10496652
490.329	8.11031281
490.528	8.12028116
490.728	8.13075838
490.928	8.14740577
491.127	8.15429079
491.327	8.16259024
491.526	8.17418764
491.726	8.17876829
491.925	8.18772738
492.125	8.19929176
492.324	8.20412759
492.524	8.21422691
492.723	8.22758095
492.922	8.23511792
493.122	8.24355172
493.321	8.25360451
493.521	8.25718329
493.72	8.26650038
493.919	8.27614811
494.119	8.28720112
494.318	8.29817943
494.517	8.30528861
494.717	8.31383149
494.916	8.31711861
495.115	8.31965257
495.315	8.3304003
495.514	8.34058128
495.713	8.3483431
495.912	8.35908217
496.112	8.36975199
496.311	8.38130327
496.51	8.39076974
496.709	8.40148156
496.908	8.40931845
497.108	8.42402977
497.307	8.43362028
497.506	8.44856099
497.705	8.46398274
497.904	8.47973574
498.103	8.49017914
498.302	8.50205925
498.501	8.5087895
498.701	8.52641352
498.9	8.5399562
499.099	8.55742782
499.298	8.57591876
499.497	8.58147186
499.696	8.59330333
499.895	8.61165991
500.094	8.63126741
500.293	8.64579771
500.492	8.65752566
500.691	8.67433641
500.89	8.69195867
501.088	8.70746206
501.287	8.71974537
501.486	8.73978044
501.685	8.75081022
501.884	8.76499602
502.083	8.77818151
502.282	8.79507888
502.481	8.81122092
502.679	8.82759542
502.878	8.8395567
503.077	8.85531492
503.276	8.87220424
503.475	8.88595304
503.673	8.90631548
503.872	8.92588068
504.071	8.93620948
504.27	8.95001404
504.468	8.96682968
504.667	8.99197009
504.866	9.00653111
505.064	9.01869352
505.263	9.03617911
505.462	9.05605515
505.66	9.07212711
505.859	9.09034314
506.058	9.10532943
506.256	9.12353844
506.455	9.14274313
506.653	9.16097605
506.852	9.1791908
507.05	9.20132403
507.249	9.21933908
507.448	9.23962012
507.646	9.25340231
507.845	9.27694442
508.043	9.28930944
508.242	9.31118768
508.44	9.32575326
508.638	9.34365455
508.837	9.35515485
509.035	9.37172967
509.234	9.39140665
509.432	9.40968645
509.631	9.42666741
509.829	9.44248421
510.027	9.46246701
510.226	9.48388947
510.424	9.50147245
510.622	9.52270518
510.821	9.54058601
511.019	9.56093902
511.217	9.57925283
511.415	9.59523039
511.614	9.61568999
511.812	9.63717627
512.01	9.6527503
512.208	9.67656514
512.407	9.69507583
512.605	9.72190173
512.803	9.74375328
513.001	9.76642574
513.199	9.79113481
513.398	9.82007615
513.596	9.84121711
513.794	9.8684232
513.992	9.89417555
514.19	9.91438549
514.388	9.93780553
514.586	9.95959978
514.784	9.97891464
514.982	10.00070587
515.18	10.02746709
515.378	10.05244413
515.576	10.08093615
515.774	10.10046921
515.972	10.12359476
516.17	10.14945537
516.368	10.16789936
516.566	10.1957371
516.764	10.22102093
516.962	10.24163039
517.16	10.26620979
517.358	10.29078952
517.556	10.30712605
517.754	10.33383385
517.952	10.35442792
518.149	10.37547612
518.347	10.4023553
518.545	10.41936187
518.743	10.44305841
518.941	10.46713141
519.138	10.49321246
519.336	10.51120672
519.534	10.52970386
519.732	10.55168508
519.929	10.57482588
520.127	10.60158688
520.325	10.62521608
520.523	10.64757457
520.72	10.66514282
520.918	10.68173085
521.116	10.7074625
521.313	10.73000406
521.511	10.74932845
521.709	10.77023115
521.906	10.79015826
522.104	10.81066048
522.301	10.83448896
522.499	10.85256407
522.696	10.87498761
522.894	10.89668635
523.092	10.91984157
523.289	10.94038328
523.487	10.96319771
523.684	10.98643739
523.882	11.00715682
524.079	11.02533817
524.276	11.04305653
524.474	11.06206343
524.671	11.08690285
524.869	11.11097892
525.066	11.13403014
525.264	11.15165953
525.461	11.17140482
525.658	11.19695414
525.856	11.21796665
526.053	11.23784891
526.25	11.260395
526.448	11.28018722
526.645	11.30379362
526.842	11.32695853
527.039	11.34319274
527.237	11.36114412
527.434	11.38000567
527.631	11.40006161
527.828	11.42103539
528.026	11.4393851
528.223	11.46065388
528.42	11.47992166
528.617	11.4995666
528.814	11.5199581
529.012	11.5403799
529.209	11.5599081
529.406	11.58049396
529.603	11.59111526
529.8	11.60704693
529.997	11.62624581
530.194	11.64662396
530.391	11.66431897
530.588	11.68451873
530.785	11.70307305
530.982	11.7184166
531.179	11.74222086
531.376	11.76298204
531.573	11.78181931
531.77	11.80110495
531.967	11.81514491
532.164	11.83161505
532.361	11.85259751
532.558	11.86849822
532.755	11.88502401
532.952	11.90481357
533.149	11.9180712
533.346	11.9371045
533.543	11.95840373
533.739	11.98470519
533.936	11.99974466
534.133	12.02426639
534.33	12.03888976
534.527	12.05945957
534.723	12.07636557
534.92	12.09348517
535.117	12.11601786
535.314	12.13313796
535.51	12.14613935
535.707	12.16255638
535.904	12.1784202
536.1	12.20582193
536.297	12.22654842
536.494	12.24119012
536.69	12.25756421
536.887	12.27580669
537.084	12.28851942
537.28	12.3091596
537.477	12.32389286
537.674	12.33433636
537.87	12.34983509
538.067	12.36808369
538.263	12.37619095
538.46	12.39735373
538.656	12.40742491
538.853	12.42521128
539.049	12.44402629
539.246	12.45837697
539.442	12.47546519
539.639	12.49012443
539.835	12.51191302
540.032	12.52829714
540.228	12.54537538
540.424	12.56092411
540.621	12.57770753
540.817	12.5999457
541.014	12.62081618
541.21	12.64403775
541.406	12.659782
541.603	12.67970649
541.799	12.69802511
541.995	12.71653832
542.191	12.73695572
542.388	12.75711367
542.584	12.77586052
542.78	12.79743748
542.976	12.81317448
543.173	12.83175767
543.369	12.85089045
543.565	12.86750157
543.761	12.8895498
543.957	12.90332197
544.154	12.92121022
544.35	12.93750964
544.546	12.9541296
544.742	12.97686339
544.938	12.99301811
545.134	13.01089754
545.33	13.02343207
545.526	13.04087313
545.722	13.05941617
545.919	13.07984536
546.115	13.09625951
546.311	13.11537006
546.507	13.13180347
546.703	13.14548375
546.899	13.16504436
547.095	13.17991776
547.29	13.19055883
547.486	13.20684617
547.682	13.22925732
547.878	13.24482956
548.074	13.26236529
548.27	13.27874521
548.466	13.29572052
548.662	13.32036544
548.858	13.33479539
549.053	13.35207265
549.249	13.36713751
549.445	13.3873309
549.641	13.40493988
549.837	13.41943819
550.032	13.43686773
550.228	13.45190858
550.424	13.46847457
550.62	13.48850358
550.815	13.5081137
551.011	13.52546648
551.207	13.54408325
551.402	13.56241488
551.598	13.57653801
551.794	13.5965062
551.989	13.61523808
552.185	13.62938006
552.381	13.64700233
552.576	13.65921742
552.772	13.67130089
552.967	13.68800365
553.163	13.70041922
553.359	13.71581406
553.554	13.73569858
553.75	13.75688536
553.945	13.76551079
554.141	13.7819938
554.336	13.79900695
554.532	13.8106606
554.727	13.82368122
554.922	13.83301352
555.118	13.84320366
555.313	13.85386653
555.509	13.86875683
555.704	13.87957004
555.899	13.88187244
556.095	13.89500134
556.29	13.91128866
556.486	13.9242021
556.681	13.93723329
556.876	13.95110376
557.071	13.95665448
557.267	13.97587465
557.462	13.98833271
557.657	13.99013758
557.853	13.99181968
558.048	14.0082633
558.243	14.01758311
558.438	14.02914117
558.633	14.0404287
558.829	14.05279084
559.024	14.0655179
559.219	14.07803892
559.414	14.08694963
559.609	14.09544098
559.804	14.11446689
559.999	14.12350644
560.194	14.1248139
560.39	14.13563144
560.585	14.14324542
560.78	14.14702803
560.975	14.15218599
561.17	14.16364253
561.365	14.16577846
561.56	14.16857682
561.755	14.18363424
561.95	14.19356287
562.145	14.20227716
562.34	14.20219606
562.535	14.21346228
562.729	14.22240535
562.924	14.22774629
563.119	14.23626348
563.314	14.23811788
563.509	14.25063726
563.704	14.26000808
563.899	14.2689553
564.093	14.27778734
564.288	14.29273248
564.483	14.30089737
564.678	14.3097817
564.873	14.32216806
565.067	14.33282369
565.262	14.34459623
565.457	14.3520289
565.652	14.35926015
565.846	14.36206582
566.041	14.36713302
566.236	14.37573989
566.43	14.39366474
566.625	14.39874587
566.82	14.40137077
567.014	14.40624017
567.209	14.41692762
567.404	14.42112659
567.598	14.42088691
567.793	14.42297115
567.987	14.41998114
568.182	14.4241831
568.376	14.43232499
568.571	14.43079577
568.765	14.43254398
568.96	14.43867018
569.154	14.44399256
569.349	14.44492405
569.543	14.45063097
569.738	14.45660969
569.932	14.46284319
570.127	14.47401153
570.321	14.48241449
570.515	14.48213674
570.71	14.48604506
570.904	14.49718104
571.098	14.5008289
571.293	14.49722277
571.487	14.50876466
571.681	14.51994019
571.876	14.52847068
572.07	14.53935235
572.264	14.54951333
572.458	14.54688595
572.653	14.54881605
572.847	14.55816545
573.041	14.56104546
573.235	14.56355677
573.43	14.57176298
573.624	14.57814654
573.818	14.59079497
574.012	14.59608946
574.206	14.60586321
574.4	14.60850368
574.594	14.61284247
574.788	14.61992201
574.983	14.62494899
575.177	14.63810059
575.371	14.64525622
575.565	14.65203478
575.759	14.65417615
575.953	14.6617391
576.147	14.66712556
576.341	14.6751264
576.535	14.689217
576.729	14.70224113
576.923	14.71054286
577.117	14.71585997
577.31	14.72237797
577.504	14.7309578
577.698	14.74177234
577.892	14.74475721
578.086	14.75484665
578.28	14.75557566
578.474	14.76321212
578.668	14.77555501
578.861	14.7813006
579.055	14.78543839
579.249	14.78656737
579.443	14.79633136
579.636	14.79919522
579.83	14.80923657
580.024	14.81363572
580.218	14.82270453
580.411	14.82611521
580.605	14.82723633
580.799	14.83531351
580.992	14.8319241
581.186	14.84407128
581.38	14.84704412
581.573	14.85212832
581.767	14.85186373
581.961	14.85564524
582.154	14.85585291
582.348	14.85722438
582.541	14.8570391
582.735	14.85516021
582.928	14.85914237
583.122	14.85489966
583.315	14.86010026
583.509	14.86430826
583.702	14.8679284
583.896	14.87558956
584.089	14.8763207
584.283	14.8771567
584.476	14.88042261
584.67	14.88472585
584.863	14.88106366
585.056	14.88855873
585.25	14.885505
585.443	14.88620359
585.636	14.89141938
585.83	14.90082331
586.023	14.90597524
586.216	14.90888248
586.41	14.91724322
586.603	14.92052886
586.796	14.92164607
586.989	14.93111127
587.183	14.94207654
587.376	14.94600822
587.569	14.94948205
587.762	14.95778151
587.955	14.96044154
588.149	14.96652769
588.342	14.97505093
588.535	14.97426303
588.728	14.98055062
588.921	14.98726246
589.114	14.99657115
589.307	15.00266221
589.5	15.00851533
589.693	15.00711501
589.886	15.01526329
590.08	15.01973851
590.273	15.02589032
590.466	15.03281743
590.659	15.05089596
590.852	15.0590173
591.044	15.06505857
591.237	15.07979438
591.43	15.08832728
591.623	15.0975115
591.816	15.10323604
592.009	15.10073868
592.202	15.11596868
592.395	15.11990278
592.588	15.12998867
592.781	15.14058274
592.973	15.15783273
593.166	15.16857502
593.359	15.18802078
593.552	15.20461592
593.745	15.22421975
593.937	15.22950156
594.13	15.23918466
594.323	15.26007328
594.515	15.27176147
594.708	15.27726182
594.901	15.29280479
595.094	15.30144812
595.286	15.30814934
595.479	15.32128707
595.672	15.33332559
595.864	15.3464671
596.057	15.36823306
596.249	15.3792673
596.442	15.39299501
596.635	15.4087565
596.827	15.4260717
597.02	15.43098088
597.212	15.43921769
597.405	15.45094395
597.597	15.46033176
597.79	15.45996802
597.982	15.47624656
598.175	15.48674627
598.367	15.48440296
598.559	15.49402754
598.752	15.50231069
598.944	15.51384024
599.137	15.52039073
599.329	15.53262081
599.521	15.54404636
599.714	15.55053653
599.906	15.55564724
600.098	15.55974699
600.291	15.5649435
600.483	15.56947275
600.675	15.5812117
600.868	15.58247724
601.06	15.5984213
601.252	15.60379511
601.444	15.60270092
601.637	15.61431769
601.829	15.62919139
602.021	15.63271187
602.213	15.63783864
602.405	15.65710862
602.597	15.66372864
602.789	15.66930358
602.982	15.67561875
603.174	15.68091242
603.366	15.68321952
603.558	15.68302577
603.75	15.69296938
603.942	15.69783757
604.134	15.70830307
604.326	15.71568787
604.518	15.72174319
604.71	15.73000719
604.902	15.73243061
605.094	15.72482943
605.286	15.73192993
605.478	15.74110809
605.67	15.74433024
605.862	15.74586558
606.054	15.7496945
606.246	15.7616537
606.437	15.75904805
606.629	15.76367264
606.821	15.7677803
607.013	15.76811254
607.205	15.77149377
607.397	15.7834468
607.588	15.79310183
607.78	15.79058084
607.972	15.79849475
608.164	15.80393217
608.355	15.80989147
608.547	15.81769445
608.739	15.80732225
608.93	15.81526934
609.122	15.8200037
609.314	15.81894985
609.505	15.81363708
609.697	15.81302093
609.889	15.81191813
610.08	15.81450818
610.272	15.81102327
610.463	15.81589202
610.655	15.81327974
610.847	15.8227319
611.038	15.82573623
611.23	15.82807792
611.421	15.82777191
611.613	15.8273642
611.804	15.83136422
611.996	15.83512396
612.187	15.82382855
612.379	15.82220674
612.57	15.8239104
612.761	15.8314337
612.953	15.82401477
613.144	15.82089606
613.336	15.82257534
613.527	15.82911906
613.718	15.82791153
613.91	15.8302175
614.101	15.82545465
614.292	15.82384896
614.483	15.82939617
614.675	15.83280103
614.866	15.82612007
615.057	15.82590843
615.248	15.82223793
615.44	15.81956033
615.631	15.81774418
615.822	15.8119962
616.013	15.81157272
616.204	15.82151156
616.396	15.82270535
616.587	15.81369915
616.778	15.82040141
616.969	15.82665362
617.16	15.83454106
617.351	15.8362884
617.542	15.83418985
617.733	15.83710449
617.924	15.83733312
618.115	15.84564146
618.306	15.84011426
618.497	15.82362677
618.688	15.82284391
618.879	15.82539294
619.07	15.82972197
619.261	15.833509
619.452	15.83403275
619.643	15.82866868
619.834	15.83908694
620.025	15.84118096
620.216	15.83350799
620.407	15.8183743
620.597	15.81919565
620.788	15.81311528
620.979	15.80341698
621.17	15.80283463
621.361	15.80202403
621.551	15.8080956
621.742	15.8027773
621.933	15.80580757
622.124	15.79710901
622.314	15.80121599
622.505	15.80921353
622.696	15.81257083
622.886	15.80710288
623.077	15.8003118
623.268	15.80502718
623.458	15.80407635
623.649	15.81241905
623.84	15.80443708
624.03	15.8023304
624.221	15.81022668
624.411	15.81767133
624.602	15.8197004
624.792	15.81706468
624.983	15.83243889
625.173	15.83420311
625.364	15.84214771
625.554	15.82317371
625.745	15.82050516
625.935	15.81537835
626.126	15.82132727
626.316	15.82220554
626.507	15.82541586
626.697	15.8208883
626.887	15.82456641
627.078	15.83247446
627.268	15.82984587
627.458	15.83452785
627.649	15.82836171
627.839	15.82643308
628.029	15.8226449
628.22	15.82116337
628.41	15.82018189
628.6	15.81658064
628.79	15.81949213
628.981	15.81056115
629.171	15.80340905
629.361	15.8014631
629.551	15.80657989
629.741	15.81124334
629.932	15.80696084
630.122	15.79523113
630.312	15.79223587
630.502	15.77501067
630.692	15.75915437
630.882	15.75258672
631.072	15.73485533
631.262	15.72604585
631.452	15.70603393
631.642	15.70006904
631.832	15.69372086
632.022	15.67168723
632.212	15.65472716
632.402	15.64228234
632.592	15.63077267
632.782	15.61284491
632.972	15.5961558
633.162	15.58479442
633.352	15.55908537
633.542	15.54856509
633.732	15.529244
633.922	15.51987844
634.111	15.50863129
634.301	15.49166378
634.491	15.49087096
634.681	15.49214285
634.871	15.47342998
635.06	15.46289951
635.25	15.44040577
635.44	15.42253042
635.63	15.40610197
635.819	15.39870926
636.009	15.39571636
636.199	15.37955853
636.388	15.3663957
636.578	15.35484903
636.768	15.33241153
636.957	15.31861851
637.147	15.29968053
637.337	15.29192874
637.526	15.27042385
637.716	15.25967571
637.905	15.22557353
638.095	15.20646558
638.284	15.18810813
638.474	15.16446528
638.663	15.13964248
638.853	15.11661389
639.042	15.10126271
639.232	15.08554613
639.421	15.06618172
639.611	15.04325068
639.8	15.01166864
639.99	14.98639296
640.179	14.96773107
640.368	14.94600555
640.558	14.91181196
640.747	14.89335369
640.936	14.87112218
641.126	14.85169723
641.315	14.82650308
641.504	14.79473713
641.694	14.75803296
641.883	14.74574349
642.072	14.71716772
642.261	14.69182601
642.451	14.66454357
642.64	14.62979974
642.829	14.61309497
643.018	14.57970261
643.207	14.5568241
643.397	14.53028546
643.586	14.51260506
643.775	14.48417945
643.964	14.45850039
644.153	14.43577758
644.342	14.41302639
644.531	14.38642908
644.72	14.36529521
644.909	14.33563298
645.098	14.31853776
645.287	14.28253001
645.476	14.2712489
645.665	14.25528458
645.854	14.22940508
646.043	14.21149512
646.232	14.20315463
646.421	14.18304233
646.61	14.17111136
646.799	14.14980289
646.988	14.13563141
647.177	14.12647914
647.365	14.12445928
647.554	14.10372569
647.743	14.09069635
647.932	14.08352693
648.121	14.06234683
648.309	14.0449768
648.498	14.04895106
648.687	14.03592071
648.876	14.02909618
649.064	14.01501699
649.253	14.01398905
649.442	13.99822408
649.63	13.9916387
649.819	13.99306085
650.008	13.98549164
650.196	13.97803573
650.385	13.96760532
650.574	13.95528137
650.762	13.9484761
650.951	13.9362407
651.139	13.92898148
651.328	13.91698233
651.516	13.91079525
651.705	13.91147993
651.893	13.90919416
652.082	13.91325903
652.27	13.91107066
652.459	13.90376553
652.647	13.90459952
652.836	13.89893452
653.024	13.89295557
653.213	13.88488484
653.401	13.89250593
653.589	13.89135299
653.778	13.89273464
653.966	13.89323538
654.154	13.87344505
654.343	13.8683125
654.531	13.87071882
654.719	13.86262459
654.908	13.86020645
655.096	13.85408639
655.284	13.84507459
655.472	13.84217495
655.661	13.83403909
655.849	13.81711081
656.037	13.80131089
656.225	13.78812764
656.413	13.78555458
656.601	13.77414603
656.79	13.77405214
656.978	13.75342619
657.166	13.74604572
657.354	13.72882764
657.542	13.71265743
657.73	13.68860262
657.918	13.67920215
658.106	13.6750453
658.294	13.66883504
658.482	13.64916458
658.67	13.63023732
658.858	13.61794373
659.046	13.58433827
659.234	13.56796844
659.422	13.54337719
659.61	13.52297765
659.798	13.51207332
659.986	13.50439614
660.173	13.47686082
660.361	13.45541151
660.549	13.43245722
660.737	13.41691826
660.925	13.40414393
661.113	13.38951269
661.3	13.36728348
661.488	13.35390376
661.676	13.33376449
661.864	13.30251347
662.051	13.2852207
662.239	13.26606623
662.427	13.24820528
662.614	13.23807774
662.802	13.2285955
662.99	13.22629986
663.177	13.20199304
663.365	13.18514334
663.553	13.16533123
663.74	13.1424149
663.928	13.12054065
664.115	13.12676617
664.303	13.10063926
664.49	13.0939315
664.678	13.07807266
664.866	13.06751414
665.053	13.04403883
665.24	13.04416344
665.428	13.02306414
665.615	13.01026026
665.803	13.00243992
665.99	12.98142825
666.178	12.96184938
666.365	12.9531545
666.552	12.94045949
666.74	12.92208837
666.927	12.90005759
667.114	12.89814407
667.302	12.89928272
667.489	12.90056277
667.676	12.88649014
667.864	12.87165521
668.051	12.85025272
668.238	12.83749624
668.425	12.81655862
668.613	12.79765281
668.8	12.78826124
668.987	12.79415544
669.174	12.7817875
669.361	12.78230141
669.548	12.78345787
669.736	12.7824278
669.923	12.78214432
670.11	12.78825419
670.297	12.79407246
670.484	12.78877343
670.671	12.79389009
670.858	12.80252641
671.045	12.80012274
671.232	12.78854295
671.419	12.78267926
671.606	12.78138305
671.793	12.78979468
671.98	12.79451347
672.167	12.79980544
672.354	12.8080996
672.541	12.8145911
672.728	12.80700687
672.915	12.8085693
673.101	12.81215402
673.288	12.81303021
673.475	12.82669716
673.662	12.82777188
673.849	12.83123783
674.035	12.83031351
674.222	12.83175637
674.409	12.84852044
674.596	12.85272066
674.783	12.85618867
674.969	12.86289465
675.156	12.88161344
675.343	12.90226779
675.529	12.92274812
675.716	12.94066441
675.903	12.95615456
676.089	12.98805621
676.276	13.01360374
676.462	13.04077353
676.649	13.07436893
676.836	13.0903316
677.022	13.12385157
677.209	13.14777473
677.395	13.17064698
677.582	13.19689184
677.768	13.23014746
677.955	13.26183629
678.141	13.29265383
678.328	13.3257907
678.514	13.35944702
678.701	13.39037994
678.887	13.42442858
679.073	13.44841741
679.26	13.48077539
679.446	13.52081166
679.632	13.56318625
679.819	13.61115854
680.005	13.66242075
680.191	13.70758088
680.378	13.74427155
680.564	13.79921592
680.75	13.8605793
680.936	13.89645376
681.123	13.95599895
681.309	14.00884449
681.495	14.05826259
681.681	14.11856471
681.867	14.18293986
682.054	14.25259681
682.24	14.3182256
682.426	14.39429932
682.612	14.47633445
682.798	14.57392665
682.984	14.66850086
683.17	14.75813706
683.356	14.85045905
683.542	14.9323422
683.728	15.03172055
683.914	15.11630671
684.1	15.20741541
684.286	15.31708829
684.472	15.41619255
684.658	15.50805815
684.844	15.60933285
685.03	15.70796604
685.216	15.81689453
685.402	15.94718622
685.588	16.06848973
685.774	16.18587
685.96	16.29303256
686.145	16.40558878
686.331	16.52752506
686.517	16.64414355
686.703	16.75144727
686.889	16.88303748
687.074	17.00459731
687.26	17.13560185
687.446	17.26921401
687.631	17.38688917
687.817	17.50970231
688.003	17.6486418
688.189	17.76158636
688.374	17.88790619
688.56	18.02818421
688.745	18.15980179
688.931	18.29585323
689.117	18.43118069
689.302	18.57344681
689.488	18.71713613
689.673	18.86175218
689.859	19.00609915
690.044	19.13589723
690.23	19.26806722
690.415	19.41507001
690.601	19.55614365
690.786	19.68515388
690.972	19.80940832
691.157	19.91795475
691.343	20.05896525
691.528	20.19209429
691.713	20.32389309
691.899	20.44814899
692.084	20.59393553
692.269	20.73009698
692.455	20.85894134
692.64	21.00414924
692.825	21.13417534
693.011	21.26460364
693.196	21.38755466
693.381	21.49488349
693.566	21.61384092
693.752	21.7461211
693.937	21.86956199
694.122	21.99136547
694.307	22.13152739
694.492	22.25063627
694.678	22.38212206
694.863	22.51440409
695.048	22.66590768
695.233	22.79235104
695.418	22.91786594
695.603	23.04845939
695.788	23.17901566
695.973	23.29580414
696.158	23.4185751
696.343	23.5384247
696.528	23.6666812
696.713	23.77626183
696.898	23.89280004
697.083	24.01480239
697.268	24.14102682
697.453	24.25807556
697.638	24.35648867
697.823	24.5074005
698.008	24.6164916
698.192	24.71491118
698.377	24.8389045
698.562	24.94240095
698.747	25.06739215
698.932	25.17344017
699.117	25.265373
699.301	25.37765323
699.486	25.49248336
699.671	25.58917589
699.856	25.69386208
700.04	25.80347744
700.225	25.91417221
700.41	26.00536115
700.594	26.11865592
700.779	26.20944131
700.964	26.29738077
701.148	26.38235721
701.333	26.4803643
701.517	26.59530093
701.702	26.66558046
701.887	26.76791955
702.071	26.85357853
702.256	26.94437837
702.44	27.02190063
702.625	27.10251883
702.809	27.18070515
702.994	27.2826581
703.178	27.37021614
703.362	27.45021137
703.547	27.54174074
703.731	27.61693561
703.916	27.68357766
704.1	27.75508996
704.284	27.82740666
704.469	27.91510073
704.653	27.99716729
704.837	28.08631818
705.022	28.17957219
705.206	28.24627907
705.39	28.30934295
705.575	28.37927532
705.759	28.4340594
705.943	28.49265726
706.127	28.55162169
706.311	28.64635306
706.496	28.70588898
706.68	28.75643097
706.864	28.80375125
707.048	28.85941475
707.232	28.91542031
707.416	28.9711091
707.6	29.02990889
707.785	29.09623611
707.969	29.15950213
708.153	29.21909021
708.337	29.26313943
708.521	29.3187955
708.705	29.37077295
708.889	29.41532439
709.073	29.4708129
709.257	29.53260313
709.441	29.59024933
709.624	29.64705422
709.808	29.68697008
709.992	29.74522698
710.176	29.76988559
710.36	29.82278488
710.544	29.88156966
710.728	29.93628281
710.912	29.98128532
711.095	30.02247768
711.279	30.05514085
711.463	30.11439661
711.647	30.15423281
711.83	30.18166722
712.014	30.2267787
712.198	30.27304893
712.382	30.32098603
712.565	30.3555406
712.749	30.40211948
712.933	30.4356379
713.116	30.47344531
713.3	30.5069432
713.483	30.55876899
713.667	30.61454087
713.851	30.6384949
714.034	30.67753119
714.218	30.70146517
714.401	30.74941535
714.585	30.77069991
714.768	30.81720384
714.952	30.86257245
715.135	30.92552371
715.319	30.95046012
715.502	30.98879837
715.686	31.02631776
715.869	31.05722541
716.052	31.08797017
716.236	31.11133634
716.419	31.15476098
716.602	31.18264773
716.786	31.22041808
716.969	31.24879158
717.152	31.29938743
717.336	31.30192768
717.519	31.3628995
717.702	31.39246859
717.885	31.41099077
718.069	31.44775687
718.252	31.5065491
718.435	31.54998682
718.618	31.5756867
718.801	31.60196652
718.985	31.60493884
719.168	31.63548596
719.351	31.64992401
719.534	31.68030184
719.717	31.69868115
719.9	31.72367465
720.083	31.77059444
720.266	31.77833736
720.449	31.80475736
720.632	31.8595365
720.815	31.87746851
720.998	31.88295125
721.181	31.91287029
721.364	31.92418148
721.547	31.96021849
721.73	32.00753464
721.913	32.03323766
722.096	32.0262537
722.279	32.03762313
722.461	32.04966136
722.644	32.06987133
722.827	32.10546799
723.01	32.1214167
723.193	32.15119551
723.376	32.18016767
723.558	32.21802012
723.741	32.23486365
723.924	32.24273451
724.107	32.25887274
724.289	32.25686909
724.472	32.25636021
724.655	32.28759378
724.837	32.29089624
725.02	32.31195605
725.203	32.32758559
725.385	32.32936275
725.568	32.33264714
725.75	32.34368813
725.933	32.38740322
726.115	32.40974159
726.298	32.42567598
726.481	32.45812895
726.663	32.47965
726.845	32.49704342
727.028	32.52580476
727.21	32.52883647
727.393	32.52386391
727.575	32.55266193
727.758	32.58599865
727.94	32.61005526
728.122	32.63917596
728.305	32.65659604
728.487	32.66722815
728.67	32.70513198
728.852	32.74006838
729.034	32.7599684
729.216	32.79663498
729.399	32.8195167
729.581	32.83809999
729.763	32.82989954
729.945	32.838417
730.128	32.85160875
730.31	32.84389103
730.492	32.85229576
730.674	32.89011175
730.856	32.90293516
731.039	32.91869865
731.221	32.95458243
731.403	32.95591077
731.585	32.9587204
731.767	32.9747564
731.949	32.99640569
732.131	33.0221727
732.313	33.02951909
732.495	33.04450895
732.677	33.07419167
732.859	33.07545985
733.041	33.08130854
733.223	33.09343892
733.405	33.11437634
733.587	33.11973707
733.769	33.14720742
733.951	33.17503327
734.132	33.20130498
734.314	33.22458672
734.496	33.21217212
734.678	33.22604569
734.86	33.24505624
735.042	33.26313227
735.223	33.27980952
735.405	33.27854016
735.587	33.28248168
735.769	33.28348024
735.95	33.29096652
736.132	33.31568169
736.314	33.32418229
736.495	33.29696463
736.677	33.3169374
736.859	33.32245885
737.04	33.33635809
737.222	33.32728758
737.403	33.34419205
737.585	33.34431764
737.767	33.3440236
737.948	33.3482299
738.13	33.34403297
738.311	33.35932387
738.493	33.35350403
738.674	33.36262617
738.856	33.34970184
739.037	33.36064257
739.219	33.39321958
739.4	33.38706298
739.581	33.4107808
739.763	33.41023384
739.944	33.40282126
740.125	33.4039286
740.307	33.42786415
740.488	33.44208216
740.669	33.46102455
740.851	33.4769438
741.032	33.50870449
741.213	33.50262981
741.395	33.50992537
741.576	33.51107469
741.757	33.53043367
741.938	33.55805455
742.119	33.56741845
742.301	33.58159499
742.482	33.58242639
742.663	33.6072254
742.844	33.62925522
743.025	33.6245162
743.206	33.64691782
743.387	33.64892859
743.568	33.6422351
743.749	33.66554799
743.93	33.69733292
744.111	33.71265716
744.292	33.71575692
744.473	33.72370065
744.654	33.72629893
744.835	33.72350906
745.016	33.74635462
745.197	33.75917277
745.378	33.77381764
745.559	33.76634114
745.74	33.75430262
745.921	33.76693199
746.102	33.76666924
746.282	33.78224596
746.463	33.78576492
746.644	33.79502657
746.825	33.80357328
747.006	33.8219661
747.186	33.83210833
747.367	33.85808509
747.548	33.8696164
747.728	33.86106568
747.909	33.86731555
748.09	33.87510654
748.27	33.89134843
748.451	33.89149438
748.632	33.91030872
748.812	33.93157336
748.993	33.95328652
749.173	33.98412201
749.354	33.98940049
749.535	34.00646241
749.715	34.0039186
749.896	34.03777192
750.076	34.03783468
750.257	34.04739649
750.437	34.04997744
750.618	34.05243456
750.798	34.05765866
750.978	34.0549227
751.159	34.0476235
751.339	34.0255849
751.52	34.03711894
751.7	34.03386554
751.88	34.02896858
752.061	34.015916
752.241	34.0331669
752.421	34.03697998
752.601	34.03298867
752.782	34.01682059
752.962	34.00448498
753.142	34.01111763
753.322	34.00846157
753.503	34.04936975
753.683	34.0458794
753.863	34.04950459
754.043	34.05401428
754.223	34.05738614
754.403	34.06871607
754.583	34.07129029
754.764	34.08887447
754.944	34.10356943
755.124	34.13894036
755.304	34.1156413
755.484	34.13105532
755.664	34.1396096
755.844	34.13100574
756.024	34.1373988
756.204	34.14890548
756.384	34.16111499
756.564	34.16653077
756.743	34.14494082
756.923	34.15209595
757.103	34.15591072
757.283	34.11335153
757.463	34.09090981
757.643	34.10086326
757.823	34.08052977
758.002	34.04183972
758.182	34.06913956
758.362	34.06753977
758.542	34.05045991
758.721	34.04254826
758.901	34.05093718
759.081	34.09539703
759.261	34.08985348
759.44	34.0947322
759.62	34.12128632
759.8	34.10173074
759.979	34.08948516
760.159	34.09230507
760.338	34.11173117
760.518	34.16143583
760.698	34.16944471
760.877	34.16679609
761.057	34.1800132
761.236	34.22073156
761.416	34.22910953
761.595	34.24597036
761.775	34.26998136
761.954	34.25629786
762.133	34.25382694
762.313	34.26589956
762.492	34.29014246
762.672	34.28479167
762.851	34.27636141
763.03	34.28287611
763.21	34.27675644
763.389	34.26986174
763.568	34.25821766
763.748	34.23315928
763.927	34.24215553
764.106	34.26263891
764.286	34.24541334
764.465	34.24060333
764.644	34.25934852
764.823	34.25073087
765.002	34.25392705
765.182	34.26077078
765.361	34.24594738
765.54	34.27366532
765.719	34.26339444
765.898	34.2858605
766.077	34.27192149
766.256	34.2662887
766.435	34.26690636
766.614	34.26366415
766.793	34.26185444
766.972	34.28011817
767.151	34.28813999
767.33	34.31809541
767.509	34.35692844
767.688	34.34957437
767.867	34.32945552
768.046	34.32895107
768.225	34.33360463
768.404	34.32574372
768.583	34.35218339
768.762	34.36415232
768.94	34.38599468
769.119	34.4191763
769.298	34.40363893
769.477	34.41490428
769.656	34.4171439
769.834	34.44760206
770.013	34.46032648
770.192	34.45475996
770.37	34.47491914
770.549	34.49485685
770.728	34.4972061
770.906	34.4972807
771.085	34.50078667
771.264	34.47880279
771.442	34.46667727
771.621	34.50530922
771.799	34.52503624
771.978	34.52863111
772.157	34.56339885
772.335	34.5562
772.514	34.54658544
772.692	34.55767159
772.871	34.55067164
773.049	34.56371718
773.228	34.57087098
773.406	34.57101876
773.584	34.5776538
773.763	34.57584473
773.941	34.58534012
774.119	34.58898957
774.298	34.58544747
774.476	34.5891998
774.655	34.59847228
774.833	34.60256318
775.011	34.61200197
775.189	34.63995857
775.368	34.62949168
775.546	34.61652676
775.724	34.61253142
775.902	34.58888105
776.08	34.60423667
776.259	34.59029635
776.437	34.58254408
776.615	34.58950955
776.793	34.59058014
776.971	34.61990202
777.149	34.638271
777.327	34.63804131
777.505	34.64658608
777.683	34.64025061
777.861	34.66020772
778.04	34.66722506
778.218	34.67849668
778.395	34.66665074
778.573	34.66555645
778.751	34.67548082
778.929	34.67352422
779.107	34.67962026
779.285	34.73309692
779.463	34.75864597
779.641	34.75389878
779.819	34.73005792
779.997	34.75767438
780.174	34.7529851
780.352	34.75339727
780.53	34.75720521
780.708	34.7334466
780.886	34.71147219
781.063	34.70351493
781.241	34.70979298
781.419	34.73024735
781.596	34.72057929
781.774	34.7213048
781.952	34.71666185
782.129	34.73798391
782.307	34.73206502
782.485	34.73451691
782.662	34.74662255
782.84	34.74301123
783.017	34.70113246
783.195	34.70773042
783.372	34.72137956
783.55	34.74038622
783.727	34.72683748
783.905	34.73180326
784.082	34.73134095
784.26	34.75211968
784.437	34.75668246
784.615	34.76269072
784.792	34.80993556
784.969	34.8263453
785.147	34.83116051
785.324	34.83268292
785.501	34.81552473
785.679	34.84273632
785.856	34.84860606
786.033	34.85223319
786.211	34.85087834
786.388	34.83723018
786.565	34.80903641
786.742	34.79942663
786.92	34.82187312
787.097	34.83203315
787.274	34.84323147
787.451	34.85362558
787.628	34.85512333
787.805	34.85325013
787.982	34.86116755
788.16	34.86132257
788.337	34.88090849
788.514	34.83876819
788.691	34.81080519
788.868	34.81413309
789.045	34.78938379
789.222	34.79449753
789.399	34.76230556
789.576	34.79075146
789.753	34.82425941
789.93	34.82800542
790.106	34.80934716
790.283	34.83363745
790.46	34.86577705
790.637	34.8415794
790.814	34.86117171
790.991	34.86236864
791.168	34.87850938
791.344	34.89968191
791.521	34.90572292
791.698	34.89685522
791.875	34.90515985
792.051	34.91837356
792.228	34.9472511
792.405	34.97974397
792.581	34.9473918
792.758	34.97600958
792.935	35.02438961
793.111	35.02928922
793.288	35.03286917
793.465	35.04794175
793.641	35.08162028
793.818	35.11480646
793.994	35.13499176
794.171	35.12383151
794.347	35.14622364
794.524	35.13923563
794.7	35.12055113
794.877	35.09728758
795.053	35.07457068
795.23	35.09870034
795.406	35.08657608
795.583	35.09536402
795.759	35.0784191
795.935	35.07891323
796.112	35.04021957
796.288	35.04963493
796.464	35.10462346
796.641	35.08343614
796.817	35.08436232
796.993	35.07503425
797.169	35.0472655
797.346	35.062026
797.522	35.09613379
797.698	35.12653949
797.874	35.12628676
798.051	35.13378935
798.227	35.13003654
798.403	35.17788879
798.579	35.19966118
798.755	35.2435369
798.931	35.27465874
799.107	35.29629737
799.283	35.3144364
799.459	35.32710687
799.635	35.35434546
799.811	35.3960605
799.987	35.45068869
800.163	35.38314791
800.339	35.40259592
800.515	35.45496896
800.691	35.43852499
800.867	35.47690067
801.043	35.46803767
801.219	35.49011743
801.395	35.44850406
801.571	35.46807693
801.746	35.40795109
801.922	35.44500383
802.098	35.47103111
802.274	35.44793258
802.45	35.41378556
802.625	35.38975128
802.801	35.38574179
802.977	35.37279647
803.152	35.3893989
803.328	35.32682715
803.504	35.32086998
803.679	35.35164197
803.855	35.30712859
804.031	35.31113833
804.206	35.30066484
804.382	35.32641217
804.557	35.35007365
804.733	35.33645074
804.909	35.28286091
805.084	35.28409848
805.26	35.29542269
805.435	35.35008733
805.61	35.34398314
805.786	35.30754105
805.961	35.36706702
806.137	35.3850019
806.312	35.38282888
806.488	35.36989487
806.663	35.39576631
806.838	35.39316661
807.014	35.42559818
807.189	35.44155941
807.364	35.41614255
807.54	35.53047965
807.715	35.5282566
807.89	35.48329841
808.065	35.48859776
808.241	35.40488238
808.416	35.4010821
808.591	35.39665913
808.766	35.46208389
808.941	35.43688279
809.116	35.4689505
809.291	35.46376865
809.467	35.45210229
809.642	35.46812261
809.817	35.4776498
809.992	35.51386076
810.167	35.52635348
810.342	35.50284162
810.517	35.49101209
810.692	35.49330589
810.867	35.49980412
811.042	35.49509942
811.217	35.37782525
811.392	35.41655579
811.567	35.48063372
811.741	35.4120858
811.916	35.47496137
812.091	35.5572782
812.266	35.61070219
812.441	35.58561841
812.616	35.62533156
812.79	35.60390648
812.965	35.59632105
813.14	35.60605236
813.315	35.48476237
813.489	35.42315622
813.664	35.39145899
813.839	35.36596757
814.013	35.37614631
814.188	35.42855004
814.363	35.48247569
814.537	35.49675416
814.712	35.49551687
814.887	35.53706793
815.061	35.44407734
815.236	35.48944125
815.41	35.58972461
815.585	35.59584557
815.759	35.52050553
815.934	35.47408115
816.108	35.39879879
816.283	35.38033732
816.457	35.40100619
816.631	35.44600208
816.806	35.44352007
816.98	35.59501906
817.155	35.64688876
817.329	35.67043087
817.503	35.69832543
817.678	35.65919852
817.852	35.64027902
818.026	35.57374307
818.201	35.53313317
818.375	35.55170942
818.549	35.62349477
818.723	35.78716425
818.897	35.85144579
819.072	35.83500617
819.246	35.87813088
819.42	35.81779313
819.594	35.95748013
819.768	36.061367
819.942	36.08679789
820.116	36.03930902
820.29	35.99526596
820.465	36.09903397
820.639	36.03067344
820.813	36.03036798
820.987	36.02237521
821.161	36.03334023
821.335	36.11175448
821.509	36.14257611
821.682	36.22131624
821.856	36.3471114
822.03	36.34008476
822.204	36.31461937
822.378	36.17219496
822.552	36.04161201
822.726	36.00109994
822.9	35.93329057
823.073	35.91832799
823.247	35.85493543
823.421	35.76620372
823.595	35.73013636
823.768	35.79007425
823.942	35.7870066
824.116	35.73182221
824.289	35.73198325
824.463	35.69807252
824.637	35.71100242
824.81	35.77344524
824.984	35.79177823
825.158	35.7974212
825.331	35.74027271
825.505	35.64544109
825.678	35.57758311
825.852	35.65922527
826.025	35.7283647
826.199	35.72861557
826.372	35.82845536
826.546	35.87914819
826.719	35.97287771
826.893	35.8652688
827.066	35.90482528
827.24	35.93636297
827.413	35.99650518
827.586	36.08189044
827.76	36.14503028
827.933	36.17379062
828.106	36.26923735
828.28	36.30818866
828.453	36.2495359
828.626	36.2455345
828.799	36.13603981
828.973	36.14031264
829.146	36.15271626
829.319	36.17446245
829.492	36.02640829
829.665	35.91776765
829.839	35.99596536
830.012	35.91354597
830.185	35.90989625
830.358	35.90373461
830.531	35.99090948
830.704	36.02216158
830.877	36.00502791
831.05	35.92703506
831.223	35.82144883
831.396	35.72661188
831.569	35.673314
831.742	35.579736
831.915	35.51454249
832.088	35.50726506
832.261	35.48195767
832.434	35.57254335
832.607	35.56897116
832.779	35.53418015
832.952	35.57408898
833.125	35.67642835
833.298	35.74871292
833.471	35.60276644
833.643	35.68923326
833.816	35.62998344
833.989	35.64100396
834.162	35.62974666
834.334	35.58094042
834.507	35.6326415
834.68	35.71745667
834.852	35.7142974
835.025	35.65122992
835.198	35.66279618
835.37	35.7507101
835.543	35.69703957
835.715	35.66636855
835.888	35.66613304
836.061	35.61779602
836.233	35.68981299
836.406	35.69495372
836.578	35.71201617
836.751	35.61626827
836.923	35.59886559
837.095	35.71288057
837.268	35.62963029
837.44	35.73824632
837.613	35.68802601
837.785	35.68470206
837.957	35.76587347
838.13	35.71780496
838.302	35.66212175
838.474	35.74217629
838.647	35.86653377
838.819	35.82633153
838.991	35.79148508
839.163	35.89113181
839.336	35.89177956
839.508	35.93714394
839.68	35.93851554
839.852	35.9086551
840.024	35.98874785
840.196	35.88764385
840.368	35.95621599
840.541	35.98824224
840.713	35.93687747
840.885	35.97492264
841.057	35.83902424
841.229	36.12723194
841.401	36.0019613
841.573	35.9701285
841.745	35.80858535
841.917	35.76563737
842.089	35.75874848
842.261	35.8092943
842.432	35.83184827
842.604	35.95770376
842.776	35.90075194
842.948	36.01541508
843.12	35.81892845
843.292	35.85446781
843.464	35.91628249
843.635	35.88459864
843.807	36.05731333
843.979	36.22110454
844.151	36.16249667
844.322	36.21144662
844.494	36.13326253
844.666	36.21103816
844.837	36.07167362
845.009	36.25331882
845.181	36.33467913
845.352	36.62711397
845.524	36.59626123
845.695	36.6231507
845.867	36.49803548
846.039	36.51729797
846.21	36.37645391
846.382	36.45558593
846.553	36.4156733
846.725	36.68119295
846.896	36.63136077
847.068	36.51720507
847.239	36.43096095
847.41	36.52804989
847.582	36.29141761
847.753	36.3747868
847.925	36.53245993
848.096	36.55899144
848.267	36.75747229
848.439	36.6767231
848.61	36.68399804
848.781	36.57096099
848.952	36.6587543
849.124	36.74865519
849.295	36.45773202
849.466	36.32390626
849.637	36.37252727
849.808	36.38246299
849.98	36.45177741
850.151	36.51762056
850.322	36.42467331
850.493	36.57392684
850.664	36.71134084
850.835	36.84438819
851.006	36.58403155
851.177	36.57022561
851.348	36.7138771
851.519	36.59728943
851.69	36.7952236
851.861	36.60431511
852.032	36.60168177
852.203	36.55720442
852.374	36.60123395
852.545	36.36801558
852.716	36.30036567
852.887	36.57182512
853.057	36.76296113
853.228	36.89656982
853.399	36.88181853
853.57	36.85318925
853.741	36.81730533
853.911	36.66315415
854.082	36.41103415
854.253	36.37935636
854.424	36.40350392
854.594	36.70872933
854.765	36.8864144
854.936	36.70469512
855.106	36.77319985
855.277	36.62659928
855.447	36.70670744
855.618	36.99904701
855.789	36.99339229
855.959	36.8473852
856.13	37.01850945
856.3	37.28174706
856.471	37.25310507
856.641	37.03563135
856.812	36.9022298
856.982	36.86273042
857.153	36.99270171
857.323	37.20333247
857.493	37.59062375
857.664	37.66963561
857.834	37.64424028
858.004	37.34519557
858.175	37.49193414
858.345	37.33745621
858.515	37.34558651
858.686	37.13188519
858.856	36.83677094
859.026	36.66792856
859.196	36.39267741
859.367	36.49486778
859.537	36.77580981
859.707	36.77398397
859.877	37.05726709
860.047	37.14857867
860.217	37.45247249
860.387	37.70840309
860.558	38.01826066
860.728	37.52074751
860.898	37.52774991
861.068	37.28715522
861.238	37.4214448
861.408	37.38856025
861.578	37.90068927
861.748	37.58366061
861.918	37.54506672
862.088	37.72418521
862.257	37.89074116
862.427	38.535624
862.597	38.50057399
862.767	38.50954109
862.937	38.39030872
863.107	38.35170416
863.277	38.60756827
863.446	37.61694016
863.616	37.75321835
863.786	37.70070019
863.956	37.54892505
864.125	37.44349055
864.295	38.08153751
864.465	38.15333132
864.634	37.84466688
864.804	37.93744639
864.974	37.89184356
865.143	37.8994152
865.313	37.63131927
865.482	38.08151559
865.652	37.59452524
865.822	37.62262726
865.991	37.49110971
866.161	37.28047603
866.33	37.07344544
866.5	37.3158391
866.669	37.4477707
866.838	37.04720535
867.008	37.6136508
867.177	37.1503834
867.347	36.80612629
867.516	36.62179819
867.685	36.79880738
867.855	36.04879691
868.024	35.41251133
868.193	35.73399669
868.363	35.81932011
868.532	36.0817024
868.701	35.75237673
868.87	36.32494649
869.04	35.92252615
869.209	36.22622038
869.378	36.57490413
869.547	35.67485329
869.716	36.43465101
869.885	36.93343808
870.055	36.79756593
870.224	36.80422825
870.393	37.08988064
870.562	36.8548204
870.731	37.10939287
870.9	37.80814109
871.069	37.96229794
871.238	38.09068987
871.407	38.41463997
871.576	38.53315322
871.745	38.19178619
871.914	37.99437713
872.083	38.13080523
872.251	38.16939085
872.42	37.56650784
872.589	38.03442416
872.758	38.54311673
872.927	38.08963918
873.096	39.46954835
873.264	39.08139826
873.433	39.03703296
873.602	38.76715225
873.771	38.36050167
873.939	38.21600891
874.108	38.67351227
874.277	38.94567033
874.445	38.84981574
874.614	38.82695556
874.783	38.70638597
874.951	39.03766137
875.12	40.02322547
875.288	40.73371815
875.457	41.20258127
875.625	40.83209837
875.794	40.74802415
875.962	41.48238581
876.131	41.8967193
876.299	41.81896258
876.468	41.3986246
876.636	40.88955263
876.805	40.7760705
876.973	40.11284292
877.141	40.87952051
877.31	40.89262209
877.478	40.40973995
877.647	40.06021967
877.815	40.13010861
877.983	39.45216263
878.151	39.89412684
878.32	40.19209734
878.488	40.29584097
878.656	39.78269128
878.824	39.70147418
878.992	40.04637916
879.161	40.76967729
879.329	41.45169247
879.497	41.09142316
879.665	39.66139694
879.833	40.24763196
880.001	41.28461756
880.169	41.5576324
880.337	42.35490789
880.505	42.57755995
880.673	42.2688597
880.841	43.35815013
881.009	44.41287043
881.177	43.72981843
881.345	42.54113839
881.513	44.1091464
881.681	44.31870289
881.849	43.55599105
882.017	44.36807302
882.185	44.78305882
882.352	44.71678288
882.52	43.61498072
882.688	41.68992641
882.856	40.89478996
883.024	40.94159124
883.191	40.89471486
883.359	40.08438819
883.527	39.59032278
883.694	40.45026332
883.862	39.53039428
884.03	40.17855231
884.197	39.57387049
884.365	39.28080173
884.533	38.84415498
884.7	40.64664606
884.868	41.43981451
885.035	40.11335443
885.203	40.42582076
885.37	40.61832669
885.538	39.72020032
885.705	38.48251786
885.873	38.47392675
886.04	38.96389965
886.208	40.94579775
886.375	41.84420537
886.542	41.58848958
886.71	43.55570492
886.877	43.68689497
