Data from areia_Reflection_00003.txt Node
Date: Thu Apr 11 13:49:57 AEST 2024
User: uqkchene_local
Spectrometer: USB4E02642
Trigger mode: 4
Integration Time (sec): 2.541000E-2
Scans to average: 101
Electric dark correction enabled: true
Nonlinearity correction enabled: false
Boxcar width: 10
XAxis mode: Wavelengths
Number of Pixels in Spectrum: 3648
>>>>>Begin Spectral Data<<<<<
179.217	180.41372236
179.432	164.25269646
179.647	157.35787355
179.862	166.11638088
180.077	174.15492958
180.293	201.30530973
180.508	176.33644674
180.723	186.86006826
180.938	94.24079832
181.153	55.55039749
181.368	38.78403646
181.583	25.57376275
181.798	14.68979559
182.013	8.88363197
182.228	8.11754396
182.443	3.89386377
182.658	2.43413641
182.873	2.44211708
183.088	4.30205747
183.303	1.63540366
183.518	3.1693688
183.733	3.0077751
183.948	1.74704388
184.162	2.76889014
184.377	2.46618317
184.592	2.15826118
184.807	2.04337704
185.022	1.82746014
185.237	2.29257013
185.452	1.75687473
185.667	1.44484276
185.882	1.15114875
186.096	2.24254704
186.311	2.5095584
186.526	1.55460158
186.741	1.41353894
186.956	1.61386351
187.17	0.4856986
187.385	0.84063543
187.6	0.17134991
187.815	1.10094491
188.03	0.49586379
188.244	2.18133062
188.459	2.72457733
188.674	2.53963537
188.889	2.14466222
189.103	1.82357725
189.318	1.61009448
189.533	1.91635456
189.747	1.36594787
189.962	0.81873205
190.177	1.30287632
190.391	1.11444225
190.606	-0.09126379
190.821	-0.12436848
191.035	-0.13640247
191.25	-1.13654109
191.465	-1.97269712
191.679	-0.05896571
191.894	0.04077903
192.109	-0.51205116
192.323	-0.54848467
192.538	-1.52131128
192.752	-3.52382774
192.967	-3.98500459
193.181	-5.83324803
193.396	-4.6613648
193.611	-4.04354193
193.825	-4.38286972
194.04	-3.78010934
194.254	-3.1076474
194.469	-2.05501285
194.683	-2.31415187
194.898	-2.42834804
195.112	-2.89403615
195.327	-2.8674262
195.541	-2.31526133
195.756	-2.74469478
195.97	-1.00666786
196.184	-0.38325824
196.399	-1.06130215
196.613	-0.48884591
196.828	-0.19219484
197.042	0.79672282
197.257	2.03875866
197.471	1.51490908
197.685	2.57345349
197.9	2.07952127
198.114	2.90939823
198.328	3.48600957
198.543	2.88768318
198.757	2.10214552
198.971	1.01033177
199.186	2.26499167
199.4	1.69467296
199.614	1.63838369
199.829	1.86770393
200.043	2.39485237
200.257	2.5487455
200.471	0.29342076
200.686	-0.60714417
200.9	-0.66508511
201.114	-0.39670892
201.328	-1.28526329
201.543	-1.8912127
201.757	-2.38535263
201.971	-2.91045744
202.185	-3.13893606
202.399	-3.73687374
202.614	-5.63829787
202.828	-6.25188693
203.042	-5.23300842
203.256	-4.85382029
203.47	-4.93866861
203.684	-7.15726379
203.899	-5.92804386
204.113	-5.33795249
204.327	-5.39812141
204.541	-5.57944941
204.755	-5.17338531
204.969	-3.86801023
205.183	-2.63540952
205.397	-2.65059679
205.611	-2.4068599
205.825	-1.96495422
206.039	-1.6578078
206.253	-0.80624438
206.467	-0.60004414
206.681	-0.60401273
206.895	-0.13403011
207.109	0.44515032
207.323	0.97559017
207.537	0.74190243
207.751	1.04704764
207.965	1.98053234
208.179	2.63013279
208.393	2.50903342
208.607	1.94924554
208.821	1.66268074
209.035	1.8653276
209.249	2.87295372
209.463	2.89025475
209.677	0.93155032
209.891	0.9733077
210.104	-0.29507567
210.318	-0.41837759
210.532	-0.59377111
210.746	-1.32692027
210.96	-1.05048816
211.174	-0.97877592
211.387	-0.50990913
211.601	0.10606991
211.815	0.17062828
212.029	-2.35585668
212.243	-2.78849318
212.456	-3.06938932
212.67	-3.18552078
212.884	-2.26364787
213.098	-1.9828218
213.311	-1.79086795
213.525	-2.08634958
213.739	-2.11659281
213.953	-2.10305269
214.166	-1.48237322
214.38	-1.86015854
214.594	-0.65968468
214.807	-0.56383389
215.021	-0.84601698
215.235	-1.22828067
215.448	-0.86202331
215.662	-0.87036488
215.876	-1.44183901
216.089	-1.86225642
216.303	-2.07457621
216.516	-1.21793996
216.73	-1.0434213
216.944	-0.97050997
217.157	-0.73584716
217.371	-1.05513927
217.584	-1.07602996
217.798	-1.75913568
218.011	-2.20532158
218.225	-3.44517394
218.439	-4.15938079
218.652	-3.99093536
218.866	-3.41067705
219.079	-4.68274927
219.293	-5.0285908
219.506	-3.84440556
219.719	-3.79507212
219.933	-3.54757215
220.146	-3.43242454
220.36	-3.20765262
220.573	-3.00465638
220.787	-2.8027369
221	-1.07878322
221.214	-0.28001715
221.427	-1.91357171
221.64	-2.30260283
221.854	-3.98821235
222.067	-3.73333684
222.28	-2.49600292
222.494	-2.79723622
222.707	-1.90420662
222.92	-1.3595748
223.134	-1.4647312
223.347	-1.90399036
223.56	-1.24658988
223.774	-0.42451012
223.987	0.03319607
224.2	0.13676057
224.414	-0.67245834
224.627	-0.45682672
224.84	-0.5013869
225.053	-0.06187708
225.267	0.33987915
225.48	-1.63078957
225.693	-2.13789395
225.906	-0.76696432
226.119	-0.73152979
226.333	-0.22403644
226.546	-1.43414354
226.759	-2.13457744
226.972	-1.38936549
227.185	-1.7943355
227.398	-1.88093861
227.612	-2.28868237
227.825	-1.96359353
228.038	-2.38009391
228.251	-3.19465269
228.464	-3.88098153
228.677	-4.60823385
228.89	-3.77390968
229.103	-4.22074092
229.316	-3.66274675
229.529	-4.10606239
229.743	-5.19662685
229.956	-4.23083411
230.169	-4.37586189
230.382	-4.54122409
230.595	-4.34277495
230.808	-3.69011635
231.021	-2.97856283
231.234	-1.69923285
231.447	-1.3152371
231.66	-0.68675398
231.872	-0.76989906
232.085	-0.03808291
232.298	-0.34509516
232.511	-0.06243879
232.724	0.58241758
232.937	-0.10460932
233.15	-0.02812974
233.363	-1.37254739
233.576	-1.50775155
233.789	-2.61175435
234.002	-3.05471733
234.214	-3.1184341
234.427	-3.56373204
234.64	-3.26139428
234.853	-3.17364722
235.066	-3.78000433
235.279	-4.53271653
235.491	-4.0058378
235.704	-4.94675124
235.917	-6.08027089
236.13	-6.90666418
236.342	-7.1503318
236.555	-7.63101165
236.768	-7.81590321
236.981	-7.74532313
237.193	-8.93643721
237.406	-8.00191968
237.619	-6.59026386
237.832	-5.81386705
238.044	-5.12358011
238.257	-3.93535218
238.47	-3.59757688
238.682	-3.54630762
238.895	-4.03932248
239.108	-3.05066765
239.32	-3.98001433
239.533	-3.61253951
239.746	-3.46094142
239.958	-3.34769912
240.171	-3.52593089
240.383	-2.5879877
240.596	-2.4181872
240.808	-2.04843803
241.021	-2.21830713
241.234	-2.41345287
241.446	-2.73188294
241.659	-2.04371526
241.871	-2.89541952
242.084	-4.10262612
242.296	-4.23809225
242.509	-5.54736991
242.721	-6.3277943
242.934	-5.53777409
243.146	-5.78736296
243.359	-4.59108041
243.571	-5.69980374
243.784	-4.86478963
243.996	-4.52314222
244.208	-4.14281132
244.421	-5.32244065
244.633	-4.93966997
244.846	-6.15377859
245.058	-6.1003006
245.27	-6.36407837
245.483	-6.66483621
245.695	-6.41699987
245.907	-6.41124237
246.12	-5.08639581
246.332	-4.83958481
246.544	-3.58475397
246.757	-3.78386176
246.969	-1.63415535
247.181	-1.54310544
247.394	-2.62662202
247.606	-1.82891106
247.818	-2.09006322
248.03	-2.37273209
248.243	-2.22757679
248.455	-2.701581
248.667	-2.70329687
248.879	-2.07437048
249.092	-3.39918128
249.304	-2.53958757
249.516	-2.80240217
249.728	-2.18027747
249.94	-2.05557948
250.153	-1.56028205
250.365	-1.52756331
250.577	-2.13963617
250.789	-1.77745754
251.001	-2.85075829
251.213	-3.18459836
251.425	-4.0135106
251.637	-4.52620578
251.85	-4.02956476
252.062	-3.98422742
252.274	-4.06136495
252.486	-3.35482059
252.698	-3.27689516
252.91	-4.10999295
253.122	-4.25352005
253.334	-3.71303019
253.546	-2.80638127
253.758	-3.13013761
253.97	-3.04869747
254.182	-3.41427492
254.394	-3.43140969
254.606	-3.59718445
254.818	-3.36145541
255.03	-4.06375559
255.242	-4.96714297
255.454	-4.49348386
255.666	-3.8620069
255.877	-4.19104128
256.089	-4.58954941
256.301	-4.91097923
256.513	-5.0309092
256.725	-4.21570116
256.937	-4.47976658
257.149	-5.28301459
257.361	-3.73767697
257.572	-3.40769787
257.784	-3.18165751
257.996	-3.57127099
258.208	-4.42100242
258.42	-3.77270661
258.631	-4.00715498
258.843	-2.71741508
259.055	-3.38418832
259.267	-3.61459413
259.479	-3.06535338
259.69	-2.41599365
259.902	-2.49446639
260.114	-2.66137551
260.325	-2.84942124
260.537	-1.84104483
260.749	-2.01603118
260.961	-2.58745889
261.172	-3.82319378
261.384	-4.30052809
261.596	-3.55625799
261.807	-3.90462707
262.019	-4.17281175
262.23	-5.31995062
262.442	-5.31392481
262.654	-5.08744782
262.865	-5.68292928
263.077	-5.52910432
263.288	-6.46750704
263.5	-6.69193734
263.712	-6.4661703
263.923	-7.56431241
264.135	-7.98428941
264.346	-8.53216366
264.558	-9.42189681
264.769	-9.6691225
264.981	-9.92361679
265.192	-9.6292569
265.404	-8.42336656
265.615	-8.78920843
265.827	-8.44553109
266.038	-8.24982105
266.25	-8.59282227
266.461	-8.98858754
266.673	-8.52749402
266.884	-7.72610699
267.095	-6.78064857
267.307	-6.31981544
267.518	-5.97214306
267.73	-5.20205966
267.941	-4.68581474
268.152	-5.11119605
268.364	-3.81618002
268.575	-3.29123257
268.786	-2.59765679
268.998	-1.96630737
269.209	-1.60841085
269.42	-1.4864792
269.632	-1.46237605
269.843	-1.75276631
270.054	-0.39667437
270.265	-1.01519011
270.477	-0.98361191
270.688	-0.46157555
270.899	-0.21911479
271.11	0.36218425
271.322	-0.4634414
271.533	-0.46444057
271.744	-0.47033193
271.955	-0.92573734
272.166	-1.33341397
272.378	-1.66923819
272.589	-1.15448452
272.8	-1.4489479
273.011	-1.39680984
273.222	-1.32323296
273.433	-1.3811264
273.644	-1.11508793
273.856	-0.93998168
274.067	-1.60713834
274.278	-1.67444892
274.489	-2.26898056
274.7	-2.32087365
274.911	-2.70151221
275.122	-2.35617768
275.333	-2.91778288
275.544	-3.80745564
275.755	-3.80819177
275.966	-3.69111017
276.177	-4.64519379
276.388	-4.26903592
276.599	-4.65459487
276.81	-3.570316
277.021	-3.47261101
277.232	-3.67820005
277.443	-3.741053
277.654	-3.42221646
277.865	-2.75810557
278.076	-3.84859073
278.287	-3.56555112
278.497	-2.49811966
278.708	-2.49109134
278.919	-2.32125633
279.13	-1.95979025
279.341	-1.4319204
279.552	-1.67680396
279.763	-0.96090535
279.973	-0.54213971
280.184	0.08583866
280.395	-0.30732104
280.606	0.12061149
280.817	-0.03511195
281.027	0.1495007
281.238	-0.51511791
281.449	-0.63617908
281.66	-1.18141619
281.87	-1.2418994
282.081	-1.89244769
282.292	-1.54815456
282.503	-0.72819707
282.713	-0.81968608
282.924	-1.36477481
283.135	-1.51024659
283.345	-1.37717205
283.556	-1.15507036
283.767	-1.76543402
283.977	-1.47302558
284.188	-1.93169093
284.399	-1.76553672
284.609	-2.03472015
284.82	-1.12498769
285.03	-1.16664857
285.241	-0.732704
285.451	-0.87626994
285.662	-0.66793691
285.873	-0.95242368
286.083	0.11296207
286.294	0.02685341
286.504	0.35939529
286.715	-0.52111748
286.925	-0.16150788
287.136	-0.12903193
287.346	-0.06718726
287.557	-0.02343419
287.767	-0.12738629
287.978	-0.12596155
288.188	0.08499019
288.399	0.10928882
288.609	0.96421443
288.819	0.95920465
289.03	1.08159758
289.24	0.54023414
289.451	0.66882992
289.661	0.39666505
289.871	0.61118249
290.082	1.15936431
290.292	1.23052468
290.502	1.18772358
290.713	1.24359447
290.923	0.89038346
291.133	1.61837298
291.344	1.60530773
291.554	1.36699801
291.764	1.61818786
291.974	1.57035132
292.185	1.59912151
292.395	1.42586236
292.605	1.51461922
292.815	1.35749581
293.026	1.05661658
293.236	1.34065928
293.446	1.57571026
293.656	1.70491047
293.866	1.66089273
294.077	1.68505713
294.287	1.72941272
294.497	1.63149618
294.707	1.8408664
294.917	1.7696057
295.127	1.84706909
295.337	2.12509633
295.548	2.09838291
295.758	2.11463121
295.968	2.30568425
296.178	2.27366065
296.388	2.47339061
296.598	2.57167253
296.808	2.59355893
297.018	2.65475052
297.228	2.76096093
297.438	2.84407391
297.648	2.88391811
297.858	2.93576278
298.068	2.92368165
298.278	2.95828094
298.488	3.07707822
298.698	3.13183218
298.908	3.17354452
299.118	3.18021299
299.328	3.201923
299.538	3.20337586
299.748	3.18231854
299.957	3.16370776
300.167	3.17567658
300.377	3.13542742
300.587	3.15850626
300.797	3.11846274
301.007	3.10665487
301.217	3.14829117
301.426	3.17655477
301.636	3.20979295
301.846	3.19735808
302.056	3.18464571
302.266	3.17511391
302.475	3.20047223
302.685	3.21245043
302.895	3.21434925
303.105	3.18983615
303.314	3.18418914
303.524	3.21487193
303.734	3.22701915
303.944	3.22742491
304.153	3.22352927
304.363	3.22503728
304.573	3.21523219
304.782	3.24273031
304.992	3.25477509
305.202	3.26987237
305.411	3.2723379
305.621	3.27337332
305.831	3.26622259
306.04	3.24932373
306.25	3.26931121
306.459	3.27114612
306.669	3.28531487
306.878	3.29519103
307.088	3.30668166
307.298	3.29685894
307.507	3.30365116
307.717	3.29357742
307.926	3.28208341
308.136	3.28333927
308.345	3.28886595
308.555	3.30519498
308.764	3.30841402
308.974	3.32238414
309.183	3.32022535
309.392	3.31561231
309.602	3.3181729
309.811	3.33045195
310.021	3.32556565
310.23	3.33722422
310.44	3.34458862
310.649	3.34316205
310.858	3.34872255
311.068	3.34448784
311.277	3.34111257
311.486	3.34450908
311.696	3.354359
311.905	3.36304345
312.114	3.3835562
312.324	3.38900256
312.533	3.39910741
312.742	3.40195936
312.952	3.4016976
313.161	3.40784846
313.37	3.4109423
313.579	3.41380607
313.789	3.42230799
313.998	3.4240401
314.207	3.42880459
314.416	3.43667598
314.625	3.43802823
314.835	3.43920865
315.044	3.43901601
315.253	3.44601702
315.462	3.4448206
315.671	3.45197042
315.88	3.45178412
316.09	3.4499439
316.299	3.44908871
316.508	3.44291036
316.717	3.44694506
316.926	3.44553072
317.135	3.45090419
317.344	3.44994601
317.553	3.45298101
317.762	3.45036823
317.971	3.45589982
318.18	3.45912696
318.389	3.46274021
318.598	3.45795987
318.807	3.46403615
319.016	3.46520003
319.225	3.46944883
319.434	3.47396276
319.643	3.46978717
319.852	3.47396461
320.061	3.48057899
320.27	3.48465953
320.479	3.48582792
320.688	3.49273555
320.897	3.49321939
321.105	3.49647917
321.314	3.49939207
321.523	3.5065535
321.732	3.51024804
321.941	3.52046556
322.15	3.52624567
322.359	3.52673559
322.567	3.52901121
322.776	3.5314182
322.985	3.53790073
323.194	3.53695279
323.403	3.53462303
323.611	3.53595952
323.82	3.54121995
324.029	3.54543385
324.237	3.55427685
324.446	3.55303729
324.655	3.56212354
324.864	3.56832937
325.072	3.56854244
325.281	3.57273375
325.49	3.57820055
325.698	3.58051173
325.907	3.58194243
326.116	3.58532077
326.324	3.58297466
326.533	3.58579223
326.741	3.58800118
326.95	3.59075596
327.159	3.5972282
327.367	3.60114168
327.576	3.60414356
327.784	3.61322153
327.993	3.61581022
328.201	3.61982918
328.41	3.62352153
328.618	3.62622922
328.827	3.63242397
329.035	3.63132876
329.244	3.63486097
329.452	3.6404616
329.661	3.65094628
329.869	3.65213371
330.078	3.65604082
330.286	3.65961281
330.495	3.66566131
330.703	3.67071574
330.911	3.67441042
331.12	3.67860314
331.328	3.68203462
331.537	3.68339627
331.745	3.68812778
331.953	3.69912579
332.162	3.70434049
332.37	3.71242065
332.578	3.71592346
332.787	3.72343252
332.995	3.7258993
333.203	3.72617534
333.411	3.72797857
333.62	3.73404208
333.828	3.73993742
334.036	3.74005734
334.244	3.74618827
334.453	3.74971252
334.661	3.75545862
334.869	3.75707376
335.077	3.76381
335.285	3.77076305
335.494	3.77762683
335.702	3.78720948
335.91	3.79379584
336.118	3.79566223
336.326	3.79921069
336.534	3.80218459
336.742	3.80290822
336.951	3.80725449
337.159	3.81037137
337.367	3.81369398
337.575	3.82002068
337.783	3.82548188
337.991	3.82690567
338.199	3.83342715
338.407	3.8363716
338.615	3.84392653
338.823	3.85036544
339.031	3.84856871
339.239	3.85339344
339.447	3.85677341
339.655	3.85556807
339.863	3.86102421
340.071	3.85739452
340.279	3.86047358
340.487	3.86607021
340.695	3.86693301
340.903	3.86979753
341.11	3.87536332
341.318	3.87738471
341.526	3.8802385
341.734	3.88563355
341.942	3.8908615
342.15	3.89654217
342.358	3.90223083
342.565	3.90410881
342.773	3.90933635
342.981	3.91136578
343.189	3.91720933
343.397	3.92716609
343.604	3.93558066
343.812	3.93796538
344.02	3.94510313
344.228	3.94956308
344.435	3.95506189
344.643	3.95913672
344.851	3.96416993
345.058	3.96945498
345.266	3.97287461
345.474	3.97811472
345.681	3.98467403
345.889	3.99018679
346.097	3.99333597
346.304	3.99584851
346.512	4.00247533
346.72	4.00642851
346.927	4.00873018
347.135	4.01335652
347.342	4.01377543
347.55	4.01565904
347.758	4.02091455
347.965	4.02465226
348.173	4.02751511
348.38	4.03433734
348.588	4.03950292
348.795	4.04588637
349.003	4.05044948
349.21	4.05512031
349.418	4.06009237
349.625	4.06237346
349.833	4.0660492
350.04	4.07024273
350.247	4.07467305
350.455	4.07903954
350.662	4.0822615
350.87	4.08685121
351.077	4.09473616
351.284	4.09769197
351.492	4.1018056
351.699	4.1084333
351.906	4.11384327
352.114	4.11403975
352.321	4.11834229
352.528	4.1181498
352.736	4.12278476
352.943	4.12661845
353.15	4.13176082
353.358	4.13503278
353.565	4.13867137
353.772	4.14091254
353.979	4.1523242
354.187	4.1575993
354.394	4.16002841
354.601	4.16704227
354.808	4.16915194
355.015	4.17934534
355.223	4.18342922
355.43	4.18785624
355.637	4.19376592
355.844	4.20129963
356.051	4.20543774
356.258	4.20999885
356.465	4.21957837
356.673	4.22315981
356.88	4.23612352
357.087	4.24079899
357.294	4.24339182
357.501	4.2484052
357.708	4.25709452
357.915	4.26345685
358.122	4.2717925
358.329	4.27800686
358.536	4.28271078
358.743	4.28866714
358.95	4.29317336
359.157	4.30084367
359.364	4.30014774
359.571	4.30320625
359.778	4.3072721
359.985	4.31102621
360.192	4.31925814
360.399	4.32430807
360.606	4.33024705
360.812	4.3352801
361.019	4.34000428
361.226	4.34441625
361.433	4.34630734
361.64	4.3520041
361.847	4.35505766
362.054	4.35887181
362.26	4.36394576
362.467	4.36943032
362.674	4.37068184
362.881	4.37564701
363.088	4.38164018
363.294	4.38561001
363.501	4.38909341
363.708	4.39681894
363.915	4.40368394
364.121	4.40947939
364.328	4.41488912
364.535	4.41422492
364.741	4.42057243
364.948	4.42331352
365.155	4.42458222
365.361	4.42919769
365.568	4.43368721
365.775	4.44056381
365.981	4.44580496
366.188	4.44966394
366.395	4.45385238
366.601	4.45891883
366.808	4.46025652
367.014	4.46632507
367.221	4.47010168
367.427	4.47460593
367.634	4.47970416
367.84	4.48876763
368.047	4.49442494
368.254	4.50100277
368.46	4.5061469
368.667	4.51284239
368.873	4.52096398
369.079	4.52622919
369.286	4.53349783
369.492	4.54086852
369.699	4.55051076
369.905	4.55522597
370.112	4.56511392
370.318	4.57270685
370.524	4.58471314
370.731	4.5913706
370.937	4.59947612
371.144	4.60908953
371.35	4.61648719
371.556	4.62500135
371.763	4.63473389
371.969	4.64382747
372.175	4.65071781
372.381	4.65632679
372.588	4.66019859
372.794	4.66743693
373	4.67687849
373.206	4.68209417
373.413	4.68916097
373.619	4.69718114
373.825	4.70638117
374.031	4.71077116
374.238	4.71811965
374.444	4.72130104
374.65	4.72775136
374.856	4.73391089
375.062	4.74259261
375.268	4.74863844
375.475	4.75578402
375.681	4.76329214
375.887	4.77091757
376.093	4.77670048
376.299	4.7781458
376.505	4.7831737
376.711	4.79269825
376.917	4.80322144
377.123	4.81168337
377.329	4.82067444
377.535	4.83066038
377.741	4.84224575
377.947	4.8484502
378.153	4.85339852
378.359	4.86329127
378.565	4.87396411
378.771	4.88318808
378.977	4.89293261
379.183	4.90015954
379.389	4.90989754
379.595	4.91867562
379.801	4.92864245
380.007	4.93616297
380.213	4.94624804
380.418	4.95656195
380.624	4.97273776
380.83	4.98600393
381.036	4.99640273
381.242	5.00480603
381.448	5.00958277
381.653	5.0141753
381.859	5.02488228
382.065	5.03275112
382.271	5.04330418
382.476	5.05709066
382.682	5.06320696
382.888	5.07274047
383.094	5.08144772
383.299	5.08982337
383.505	5.10222983
383.711	5.10930013
383.916	5.1162294
384.122	5.12471849
384.328	5.13483367
384.533	5.14737372
384.739	5.15509777
384.945	5.16076679
385.15	5.16603943
385.356	5.16877105
385.562	5.17721801
385.767	5.19150438
385.973	5.2059839
386.178	5.2118357
386.384	5.21227942
386.589	5.21988026
386.795	5.22698847
387	5.23804736
387.206	5.24665264
387.411	5.25573376
387.617	5.26390782
387.822	5.2699398
388.028	5.28104467
388.233	5.29248875
388.439	5.30189334
388.644	5.31008384
388.85	5.31238081
389.055	5.32412669
389.26	5.33892267
389.466	5.35016352
389.671	5.3646311
389.877	5.37446576
390.082	5.38165974
390.287	5.39090495
390.493	5.40139193
390.698	5.41866567
390.903	5.43137663
391.109	5.44141274
391.314	5.45177107
391.519	5.46097907
391.724	5.47201455
391.93	5.48131115
392.135	5.48882771
392.34	5.4976369
392.545	5.50748178
392.751	5.5136621
392.956	5.52485422
393.161	5.53407146
393.366	5.54054887
393.571	5.54405323
393.776	5.55309244
393.982	5.56262291
394.187	5.56811094
394.392	5.57606222
394.597	5.58308149
394.802	5.59325668
395.007	5.60221228
395.212	5.61099325
395.417	5.61799294
395.622	5.6258343
395.827	5.6336368
396.032	5.64117143
396.237	5.65019253
396.442	5.6584309
396.647	5.664593
396.852	5.66915752
397.057	5.67612728
397.262	5.68022989
397.467	5.688555
397.672	5.69665982
397.877	5.70440264
398.082	5.71178637
398.287	5.71738819
398.492	5.72475295
398.697	5.73172198
398.902	5.73884227
399.107	5.74265941
399.311	5.74749538
399.516	5.75265909
399.721	5.75724227
399.926	5.76539861
400.131	5.77360387
400.336	5.78056155
400.54	5.78633255
400.745	5.7935908
400.95	5.80021672
401.155	5.81018666
401.359	5.81896877
401.564	5.82797598
401.769	5.83385284
401.974	5.8429642
402.178	5.85285951
402.383	5.85713345
402.588	5.86420997
402.792	5.87400635
402.997	5.8820351
403.202	5.88854235
403.406	5.89878628
403.611	5.90755814
403.815	5.91511473
404.02	5.92743932
404.225	5.93389013
404.429	5.93932657
404.634	5.94736462
404.838	5.95470978
405.043	5.96313651
405.247	5.97286807
405.452	5.98094312
405.656	5.9892609
405.861	5.99773722
406.065	6.00802544
406.27	6.01571998
406.474	6.02090264
406.679	6.03287203
406.883	6.04055657
407.088	6.04833175
407.292	6.05581819
407.497	6.06588636
407.701	6.07188177
407.905	6.07904584
408.11	6.08630513
408.314	6.0922387
408.518	6.09992886
408.723	6.11140781
408.927	6.1193091
409.131	6.12861869
409.336	6.13639565
409.54	6.14458333
409.744	6.15088036
409.949	6.15915472
410.153	6.1679402
410.357	6.17480309
410.561	6.18010802
410.766	6.18924067
410.97	6.19455138
411.174	6.20312236
411.378	6.21163469
411.582	6.21999233
411.787	6.22881848
411.991	6.23966498
412.195	6.24872213
412.399	6.25837144
412.603	6.26869319
412.807	6.2754777
413.011	6.28264266
413.215	6.28978634
413.419	6.29796603
413.624	6.30799731
413.828	6.31644332
414.032	6.32665242
414.236	6.33752169
414.44	6.34455848
414.644	6.35366761
414.848	6.36366969
415.052	6.37350232
415.256	6.38571982
415.46	6.3960249
415.664	6.40512253
415.868	6.41446677
416.072	6.42433916
416.275	6.43257012
416.479	6.44239861
416.683	6.44993195
416.887	6.45767134
417.091	6.47149765
417.295	6.47996812
417.499	6.49124595
417.703	6.50320359
417.906	6.51217435
418.11	6.52235279
418.314	6.53208805
418.518	6.54270498
418.722	6.55282098
418.925	6.56347607
419.129	6.57432642
419.333	6.58494885
419.537	6.59508762
419.74	6.60429767
419.944	6.61469945
420.148	6.62513961
420.352	6.63262836
420.555	6.64360918
420.759	6.65143042
420.963	6.66282087
421.166	6.67231068
421.37	6.68057056
421.573	6.69512726
421.777	6.70516727
421.981	6.71402777
422.184	6.72551315
422.388	6.73744833
422.591	6.74867382
422.795	6.7565149
422.999	6.76880673
423.202	6.77847233
423.406	6.79105157
423.609	6.80122593
423.813	6.81184421
424.016	6.82494046
424.22	6.8380962
424.423	6.85039773
424.627	6.8614883
424.83	6.87334969
425.033	6.88472613
425.237	6.89951209
425.44	6.91388783
425.644	6.92665767
425.847	6.93522116
426.05	6.94582728
426.254	6.95804823
426.457	6.97016418
426.66	6.98173156
426.864	6.99358918
427.067	7.00464661
427.27	7.01684807
427.474	7.03089857
427.677	7.04184383
427.88	7.05523799
428.084	7.06528007
428.287	7.07576614
428.49	7.08765381
428.693	7.10002038
428.896	7.11210496
429.1	7.12418558
429.303	7.13830666
429.506	7.14827254
429.709	7.16084887
429.912	7.17329253
430.116	7.18760636
430.319	7.19987176
430.522	7.21409247
430.725	7.22297404
430.928	7.23454729
431.131	7.2477906
431.334	7.26097726
431.537	7.27480825
431.74	7.28736248
431.943	7.2986178
432.146	7.31020799
432.349	7.32508974
432.552	7.33757346
432.755	7.3499962
432.958	7.36133204
433.161	7.3737196
433.364	7.3852036
433.567	7.40004267
433.77	7.41360594
433.973	7.42375746
434.176	7.4357666
434.379	7.44300176
434.582	7.45514579
434.785	7.46571482
434.988	7.47954919
435.19	7.48775867
435.393	7.49803149
435.596	7.51174026
435.799	7.5216272
436.002	7.53355843
436.205	7.54530688
436.407	7.55727423
436.61	7.56589265
436.813	7.57747796
437.016	7.58792107
437.218	7.60009199
437.421	7.61067282
437.624	7.61956645
437.827	7.62666524
438.029	7.63697671
438.232	7.64815637
438.435	7.65664936
438.637	7.66938967
438.84	7.6816497
439.043	7.69275536
439.245	7.70369629
439.448	7.71608206
439.65	7.72548327
439.853	7.73297915
440.056	7.74313315
440.258	7.75139483
440.461	7.76145931
440.663	7.7699679
440.866	7.77997057
441.068	7.78975324
441.271	7.79903695
441.473	7.80953921
441.676	7.82190047
441.878	7.8350222
442.081	7.84801321
442.283	7.85844342
442.486	7.86947065
442.688	7.88174913
442.89	7.89204999
443.093	7.9018673
443.295	7.90910628
443.498	7.91761907
443.7	7.92958797
443.902	7.94001061
444.105	7.95059417
444.307	7.96078531
444.509	7.9720305
444.712	7.98278005
444.914	7.99450022
445.116	8.00491281
445.319	8.0153488
445.521	8.02680597
445.723	8.03598019
445.925	8.04451133
446.128	8.05492047
446.33	8.06334994
446.532	8.07099663
446.734	8.08143921
446.936	8.09146177
447.139	8.10214262
447.341	8.11015945
447.543	8.12034455
447.745	8.13139718
447.947	8.13773827
448.149	8.14779704
448.351	8.15832664
448.553	8.16732933
448.755	8.17505058
448.958	8.18336882
449.16	8.18929341
449.362	8.19972391
449.564	8.20741685
449.766	8.21377999
449.968	8.22049613
450.17	8.23002924
450.372	8.23809838
450.574	8.2461803
450.776	8.25870572
450.978	8.26818724
451.179	8.27546399
451.381	8.28530616
451.583	8.29421785
451.785	8.30272285
451.987	8.3137493
452.189	8.32466369
452.391	8.33389046
452.593	8.34221584
452.795	8.35060245
452.996	8.35833488
453.198	8.36707586
453.4	8.37554431
453.602	8.38374893
453.804	8.39475614
454.005	8.40359187
454.207	8.41540009
454.409	8.4218209
454.611	8.43016497
454.812	8.43949659
455.014	8.44583865
455.216	8.45128811
455.417	8.46025774
455.619	8.46901988
455.821	8.47745702
456.022	8.48696283
456.224	8.49228832
456.426	8.49991012
456.627	8.50767292
456.829	8.5152197
457.031	8.5225416
457.232	8.53266265
457.434	8.54089813
457.635	8.5488067
457.837	8.55843105
458.038	8.56560023
458.24	8.57431495
458.441	8.57866609
458.643	8.58661558
458.844	8.5924491
459.046	8.59925651
459.247	8.60755078
459.449	8.61384121
459.65	8.62036032
459.852	8.62548561
460.053	8.633278
460.254	8.64078775
460.456	8.64874163
460.657	8.65478207
460.859	8.65869051
461.06	8.66753425
461.261	8.67672729
461.463	8.68317733
461.664	8.68883063
461.865	8.69859527
462.066	8.70613872
462.268	8.71328293
462.469	8.72104771
462.67	8.73005232
462.872	8.73613433
463.073	8.74252188
463.274	8.75151012
463.475	8.75838936
463.676	8.76567481
463.878	8.7709568
464.079	8.7785329
464.28	8.78311081
464.481	8.78917741
464.682	8.79534849
464.883	8.80416871
465.085	8.81574958
465.286	8.82187693
465.487	8.8289428
465.688	8.8367731
465.889	8.84306174
466.09	8.84758581
466.291	8.85115693
466.492	8.85756253
466.693	8.86447555
466.894	8.87135604
467.095	8.88108589
467.296	8.88767712
467.497	8.89437614
467.698	8.90063137
467.899	8.91121785
468.1	8.9202988
468.301	8.92630591
468.502	8.93415319
468.703	8.943055
468.903	8.95161147
469.104	8.95847443
469.305	8.9638725
469.506	8.97110448
469.707	8.9769131
469.908	8.98539468
470.109	8.99575426
470.309	9.00714065
470.51	9.01707311
470.711	9.02559779
470.912	9.03249787
471.112	9.03968482
471.313	9.04724416
471.514	9.05516878
471.715	9.06219123
471.915	9.06938621
472.116	9.0748102
472.317	9.08267316
472.517	9.09158183
472.718	9.10130161
472.919	9.11119349
473.119	9.12032426
473.32	9.13005231
473.521	9.13830434
473.721	9.14532594
473.922	9.15423794
474.122	9.16260999
474.323	9.17140261
474.523	9.17846075
474.724	9.18497418
474.925	9.19341306
475.125	9.20470459
475.326	9.21468855
475.526	9.22410459
475.727	9.23446905
475.927	9.24309837
476.127	9.25208873
476.328	9.26290561
476.528	9.27099389
476.729	9.27885633
476.929	9.28848631
477.13	9.29568527
477.33	9.30333567
477.53	9.31161319
477.731	9.31983196
477.931	9.33207441
478.131	9.33958962
478.332	9.34690941
478.532	9.35475273
478.732	9.36343405
478.933	9.37510821
479.133	9.38462182
479.333	9.39042491
479.533	9.39782332
479.734	9.40659015
479.934	9.41550177
480.134	9.42469411
480.334	9.43558404
480.534	9.44477271
480.735	9.454506
480.935	9.46604985
481.135	9.47708667
481.335	9.48401417
481.535	9.49539216
481.735	9.5052182
481.935	9.5155761
482.136	9.5229763
482.336	9.5341579
482.536	9.54476253
482.736	9.55489112
482.936	9.56454503
483.136	9.57465892
483.336	9.58524787
483.536	9.59833466
483.736	9.61027408
483.936	9.61912979
484.136	9.62982218
484.336	9.64098291
484.536	9.65121259
484.736	9.6621569
484.936	9.67220056
485.135	9.68294116
485.335	9.69169686
485.535	9.70560105
485.735	9.71563235
485.935	9.72677163
486.135	9.73862186
486.335	9.75157847
486.534	9.7645553
486.734	9.7758898
486.934	9.78844353
487.134	9.79896565
487.334	9.80820758
487.533	9.8191697
487.733	9.82748516
487.933	9.83779018
488.133	9.85145034
488.332	9.86334351
488.532	9.87375075
488.732	9.88595398
488.931	9.89654311
489.131	9.9089709
489.331	9.91801397
489.53	9.9307043
489.73	9.94085941
489.93	9.95179631
490.129	9.96259656
490.329	9.97259178
490.528	9.98410187
490.728	9.99533191
490.928	10.00696555
491.127	10.01733331
491.327	10.02946716
491.526	10.04041504
491.726	10.05130919
491.925	10.06331315
492.125	10.07467117
492.324	10.08508403
492.524	10.0965086
492.723	10.1076144
492.922	10.11631299
493.122	10.12632841
493.321	10.13775284
493.521	10.14946653
493.72	10.15788659
493.919	10.16934707
494.119	10.17887333
494.318	10.19088715
494.517	10.20270112
494.717	10.21240349
494.916	10.22255117
495.115	10.23255532
495.315	10.24452892
495.514	10.2560488
495.713	10.26641824
495.912	10.27747925
496.112	10.29023363
496.311	10.30195984
496.51	10.3145759
496.709	10.32618168
496.908	10.33831154
497.108	10.35246619
497.307	10.36455452
497.506	10.3757789
497.705	10.38913437
497.904	10.40330583
498.103	10.4165094
498.302	10.42980247
498.501	10.44101486
498.701	10.451931
498.9	10.46367288
499.099	10.4772421
499.298	10.49146787
499.497	10.50265319
499.696	10.5147026
499.895	10.52884194
500.094	10.54097927
500.293	10.55327796
500.492	10.56520152
500.691	10.57528441
500.89	10.58636474
501.088	10.59815173
501.287	10.60871373
501.486	10.62297836
501.685	10.63633325
501.884	10.64892358
502.083	10.66174715
502.282	10.67227577
502.481	10.68413169
502.679	10.6963339
502.878	10.71066187
503.077	10.72321164
503.276	10.73532683
503.475	10.74825436
503.673	10.76008077
503.872	10.77273943
504.071	10.78554205
504.27	10.79950299
504.468	10.8108383
504.667	10.82266088
504.866	10.83592642
505.064	10.84872512
505.263	10.86273379
505.462	10.875809
505.66	10.88859082
505.859	10.89966458
506.058	10.91121294
506.256	10.92274141
506.455	10.93547951
506.653	10.94992382
506.852	10.96294387
507.05	10.97342161
507.249	10.98695391
507.448	10.99841555
507.646	11.00894155
507.845	11.02160358
508.043	11.03448512
508.242	11.04544799
508.44	11.05690799
508.638	11.06943942
508.837	11.08425934
509.035	11.09635277
509.234	11.10962627
509.432	11.12270266
509.631	11.13579222
509.829	11.14630098
510.027	11.16170332
510.226	11.17527336
510.424	11.18847023
510.622	11.2036274
510.821	11.21632216
511.019	11.22876883
511.217	11.24295953
511.415	11.25363005
511.614	11.26747165
511.812	11.28180527
512.01	11.29601691
512.208	11.30983759
512.407	11.32650502
512.605	11.3401787
512.803	11.35526991
513.001	11.36826174
513.199	11.38233979
513.398	11.39625018
513.596	11.40997694
513.794	11.42366949
513.992	11.43764477
514.19	11.45127125
514.388	11.46544642
514.586	11.48227224
514.784	11.49434647
514.982	11.50782182
515.18	11.52232969
515.378	11.53688988
515.576	11.55291185
515.774	11.56555416
515.972	11.58029142
516.17	11.59535518
516.368	11.60950156
516.566	11.62410071
516.764	11.63878193
516.962	11.65331378
517.16	11.66642968
517.358	11.68109697
517.556	11.69552823
517.754	11.70933854
517.952	11.72344227
518.149	11.73820895
518.347	11.75148058
518.545	11.76460851
518.743	11.77692226
518.941	11.79185434
519.138	11.8075311
519.336	11.8223882
519.534	11.83819211
519.732	11.85313944
519.929	11.86941117
520.127	11.88538765
520.325	11.89922589
520.523	11.91408717
520.72	11.927455
520.918	11.94214852
521.116	11.95555763
521.313	11.97197709
521.511	11.98691258
521.709	12.00086297
521.906	12.01655138
522.104	12.0308358
522.301	12.04562982
522.499	12.06071544
522.696	12.07822403
522.894	12.09238903
523.092	12.10837799
523.289	12.12212277
523.487	12.13677866
523.684	12.15000352
523.882	12.16489709
524.079	12.17865086
524.276	12.19188155
524.474	12.20912965
524.671	12.22519608
524.869	12.24008752
525.066	12.25480223
525.264	12.27036329
525.461	12.28441979
525.658	12.29944618
525.856	12.31474798
526.053	12.32899145
526.25	12.34577669
526.448	12.35989289
526.645	12.37373375
526.842	12.387754
527.039	12.40292566
527.237	12.41677116
527.434	12.43166542
527.631	12.44720686
527.828	12.46350499
528.026	12.47833666
528.223	12.49348882
528.42	12.50731438
528.617	12.52055893
528.814	12.53441751
529.012	12.5498388
529.209	12.56606105
529.406	12.58187532
529.603	12.59531244
529.8	12.61084316
529.997	12.6242637
530.194	12.6388371
530.391	12.65310961
530.588	12.67026883
530.785	12.68603855
530.982	12.69862433
531.179	12.71163527
531.376	12.72682884
531.573	12.74115046
531.77	12.75549967
531.967	12.76969891
532.164	12.78633192
532.361	12.80069885
532.558	12.8157761
532.755	12.82816862
532.952	12.83953663
533.149	12.85288699
533.346	12.8656027
533.543	12.87843889
533.739	12.89558911
533.936	12.9099256
534.133	12.92485643
534.33	12.93933495
534.527	12.95279665
534.723	12.96789093
534.92	12.98197616
535.117	12.99794303
535.314	13.01158517
535.51	13.0252612
535.707	13.04014113
535.904	13.0550716
536.1	13.06772263
536.297	13.08077548
536.494	13.09498834
536.69	13.11035278
536.887	13.12585224
537.084	13.14259777
537.28	13.15738641
537.477	13.17112422
537.674	13.18623161
537.87	13.19873996
538.067	13.21262507
538.263	13.22632252
538.46	13.24309875
538.656	13.25816428
538.853	13.27081226
539.049	13.28552944
539.246	13.2989348
539.442	13.31726112
539.639	13.33176545
539.835	13.34562078
540.032	13.36145166
540.228	13.37738874
540.424	13.39132903
540.621	13.4068932
540.817	13.42037679
541.014	13.43542222
541.21	13.45216614
541.406	13.46790039
541.603	13.48365303
541.799	13.49730002
541.995	13.51280422
542.191	13.52595222
542.388	13.54163149
542.584	13.5547303
542.78	13.57071677
542.976	13.58462658
543.173	13.60148005
543.369	13.61569693
543.565	13.62967635
543.761	13.64425966
543.957	13.65882712
544.154	13.67404129
544.35	13.69085906
544.546	13.70568783
544.742	13.72032141
544.938	13.73526863
545.134	13.75203516
545.33	13.76417525
545.526	13.7770277
545.722	13.79017428
545.919	13.80539553
546.115	13.81818686
546.311	13.83417123
546.507	13.85102115
546.703	13.86435438
546.899	13.87886125
547.095	13.89422603
547.29	13.90646827
547.486	13.92251222
547.682	13.93645013
547.878	13.95165656
548.074	13.96645164
548.27	13.98011434
548.466	13.99379803
548.662	14.00870246
548.858	14.02533752
549.053	14.0416517
549.249	14.0540115
549.445	14.07025084
549.641	14.0859478
549.837	14.10422016
550.032	14.11995515
550.228	14.13756677
550.424	14.15287432
550.62	14.16686233
550.815	14.18079102
551.011	14.19528117
551.207	14.21023705
551.402	14.22151387
551.598	14.23755263
551.794	14.25221701
551.989	14.2649829
552.185	14.28135018
552.381	14.29579756
552.576	14.30903907
552.772	14.32279874
552.967	14.33518145
553.163	14.3487509
553.359	14.36359523
553.554	14.37688675
553.75	14.39097428
553.945	14.40310087
554.141	14.41790741
554.336	14.42985698
554.532	14.44291445
554.727	14.45558326
554.922	14.47356352
555.118	14.4864374
555.313	14.50032506
555.509	14.51966675
555.704	14.53195309
555.899	14.54712861
556.095	14.56152839
556.29	14.5754284
556.486	14.58848313
556.681	14.60372629
556.876	14.61883285
557.071	14.63174339
557.267	14.64446055
557.462	14.65694219
557.657	14.67036143
557.853	14.68252948
558.048	14.69624236
558.243	14.70887423
558.438	14.72459239
558.633	14.73833236
558.829	14.751081
559.024	14.76393038
559.219	14.77810749
559.414	14.79198285
559.609	14.8042797
559.804	14.81776486
559.999	14.82962443
560.194	14.84505433
560.39	14.85732983
560.585	14.87039994
560.78	14.88118976
560.975	14.89323432
561.17	14.90604702
561.365	14.91965773
561.56	14.93265538
561.755	14.9450398
561.95	14.96060187
562.145	14.97450509
562.34	14.9856085
562.535	14.99830076
562.729	15.01208784
562.924	15.0251252
563.119	15.03663944
563.314	15.04783786
563.509	15.05983685
563.704	15.07096635
563.899	15.08437709
564.093	15.09781561
564.288	15.10903552
564.483	15.1206523
564.678	15.13139599
564.873	15.14503949
565.067	15.15960951
565.262	15.17416894
565.457	15.18629795
565.652	15.19829191
565.846	15.20959205
566.041	15.21940634
566.236	15.23217928
566.43	15.24575204
566.625	15.25765669
566.82	15.26875001
567.014	15.28084234
567.209	15.29167559
567.404	15.30355793
567.598	15.3144397
567.793	15.3272075
567.987	15.33812476
568.182	15.34875474
568.376	15.3613704
568.571	15.37260127
568.765	15.38273295
568.96	15.39502692
569.154	15.40285081
569.349	15.41372914
569.543	15.42531342
569.738	15.43836184
569.932	15.45242441
570.127	15.46234831
570.321	15.47057476
570.515	15.48309003
570.71	15.494696
570.904	15.50586413
571.098	15.51851917
571.293	15.53186675
571.487	15.54292714
571.681	15.55341747
571.876	15.56660846
572.07	15.57694789
572.264	15.58729763
572.458	15.59730902
572.653	15.6105562
572.847	15.62306724
573.041	15.63270402
573.235	15.64522319
573.43	15.65527893
573.624	15.66678248
573.818	15.6790808
574.012	15.68979244
574.206	15.70380344
574.4	15.71853748
574.594	15.7283959
574.788	15.74030488
574.983	15.74944722
575.177	15.75783082
575.371	15.76668819
575.565	15.776055
575.759	15.79191795
575.953	15.80045433
576.147	15.81064163
576.341	15.82026749
576.535	15.83349808
576.729	15.84166567
576.923	15.85360159
577.117	15.86596421
577.31	15.87598053
577.504	15.8848041
577.698	15.89416513
577.892	15.90406955
578.086	15.91484681
578.28	15.92298189
578.474	15.93300365
578.668	15.94028471
578.861	15.94796866
579.055	15.96136281
579.249	15.97050413
579.443	15.98039869
579.636	15.99301205
579.83	15.99970668
580.024	16.01116843
580.218	16.02348177
580.411	16.03406505
580.605	16.04096717
580.799	16.05354298
580.992	16.06632209
581.186	16.07512656
581.38	16.08658917
581.573	16.09761624
581.767	16.10769988
581.961	16.11449971
582.154	16.12322996
582.348	16.13403887
582.541	16.14378066
582.735	16.155792
582.928	16.16762561
583.122	16.17478177
583.315	16.18754217
583.509	16.19865868
583.702	16.20605333
583.896	16.21477732
584.089	16.22344966
584.283	16.23185989
584.476	16.24411814
584.67	16.25292738
584.863	16.26041135
585.056	16.2678998
585.25	16.27634929
585.443	16.2831074
585.636	16.29224768
585.83	16.30192267
586.023	16.31175782
586.216	16.32365085
586.41	16.33424536
586.603	16.3398994
586.796	16.34947371
586.989	16.35862717
587.183	16.37123834
587.376	16.38044062
587.569	16.39116428
587.762	16.40567965
587.955	16.41679986
588.149	16.42353731
588.342	16.43384805
588.535	16.44288485
588.728	16.45635197
588.921	16.46431915
589.114	16.47377616
589.307	16.48493706
589.5	16.4940665
589.693	16.50603269
589.886	16.5192114
590.08	16.52934775
590.273	16.53911168
590.466	16.54717003
590.659	16.5582449
590.852	16.56755368
591.044	16.57617947
591.237	16.58688026
591.43	16.59614876
591.623	16.60465124
591.816	16.61266023
592.009	16.62109419
592.202	16.63388205
592.395	16.6421548
592.588	16.64874761
592.781	16.65388214
592.973	16.66501296
593.166	16.67291983
593.359	16.68416833
593.552	16.69482935
593.745	16.70170581
593.937	16.70670762
594.13	16.71461172
594.323	16.72060828
594.515	16.73110027
594.708	16.74089871
594.901	16.7495638
595.094	16.75979603
595.286	16.76811382
595.479	16.77545303
595.672	16.78357684
595.864	16.79179249
596.057	16.80322085
596.249	16.81192084
596.442	16.82054941
596.635	16.83109795
596.827	16.83996448
597.02	16.84892911
597.212	16.85755509
597.405	16.8649512
597.597	16.87457657
597.79	16.88276093
597.982	16.89260551
598.175	16.90376541
598.367	16.91315564
598.559	16.92303649
598.752	16.93058222
598.944	16.93916312
599.137	16.94447687
599.329	16.94958189
599.521	16.96241295
599.714	16.97121321
599.906	16.97880113
600.098	16.98361105
600.291	16.99192052
600.483	17.00036651
600.675	17.01063008
600.868	17.02038802
601.06	17.02607009
601.252	17.03604632
601.444	17.04411599
601.637	17.05218628
601.829	17.06334309
602.021	17.07136655
602.213	17.07697308
602.405	17.08596061
602.597	17.09371729
602.789	17.10258691
602.982	17.111534
603.174	17.12093943
603.366	17.12871436
603.558	17.13501206
603.75	17.14471089
603.942	17.15275064
604.134	17.16030454
604.326	17.16825539
604.518	17.17907253
604.71	17.18356038
604.902	17.19033987
605.094	17.20107135
605.286	17.20642804
605.478	17.21300596
605.67	17.21902646
605.862	17.2252205
606.054	17.2329045
606.246	17.2424307
606.437	17.25011826
606.629	17.25743429
606.821	17.26278341
607.013	17.26913561
607.205	17.27691142
607.397	17.28492297
607.588	17.29307562
607.78	17.29763682
607.972	17.30434072
608.164	17.31084175
608.355	17.31801556
608.547	17.32423678
608.739	17.33415321
608.93	17.34189098
609.122	17.34817174
609.314	17.35545755
609.505	17.36475797
609.697	17.37352726
609.889	17.38071293
610.08	17.38466815
610.272	17.39308337
610.463	17.39729581
610.655	17.40188399
610.847	17.40813012
611.038	17.41287397
611.23	17.41876771
611.421	17.430425
611.613	17.43555463
611.804	17.44096936
611.996	17.44946092
612.187	17.45843956
612.379	17.46535217
612.57	17.47185069
612.761	17.47672116
612.953	17.48446325
613.144	17.49316527
613.336	17.50002822
613.527	17.50349233
613.718	17.50868548
613.91	17.51688525
614.101	17.52469437
614.292	17.53207183
614.483	17.53949368
614.675	17.55034203
614.866	17.56209119
615.057	17.57071705
615.248	17.57850142
615.44	17.57914833
615.631	17.58340957
615.822	17.58941192
616.013	17.59446286
616.204	17.60244652
616.396	17.607742
616.587	17.61027494
616.778	17.61539689
616.969	17.62151267
617.16	17.62487766
617.351	17.63339181
617.542	17.63956798
617.733	17.64636858
617.924	17.64994024
618.115	17.65745658
618.306	17.66200405
618.497	17.66926348
618.688	17.67327859
618.879	17.67594205
619.07	17.68358787
619.261	17.68937782
619.452	17.69499682
619.643	17.70067863
619.834	17.70918435
620.025	17.71465397
620.216	17.7182596
620.407	17.72684338
620.597	17.73159997
620.788	17.73948018
620.979	17.74437058
621.17	17.75146073
621.361	17.75874343
621.551	17.76917086
621.742	17.7778156
621.933	17.78388705
622.124	17.79083996
622.314	17.79453019
622.505	17.80430163
622.696	17.81159352
622.886	17.8212241
623.077	17.82871421
623.268	17.83365351
623.458	17.8421003
623.649	17.85094114
623.84	17.8580189
624.03	17.86457463
624.221	17.87156809
624.411	17.8781691
624.602	17.88677699
624.792	17.89311379
624.983	17.90277082
625.173	17.91073187
625.364	17.91074046
625.554	17.91695476
625.745	17.92236529
625.935	17.93243931
626.126	17.94023159
626.316	17.95135478
626.507	17.95384898
626.697	17.95940451
626.887	17.96303415
627.078	17.96945218
627.268	17.98089477
627.458	17.98821693
627.649	17.99726046
627.839	18.00535081
628.029	18.01222418
628.22	18.02056114
628.41	18.02634544
628.6	18.03243381
628.79	18.04267932
628.981	18.04924466
629.171	18.05361164
629.361	18.06442113
629.551	18.06891523
629.741	18.07412298
629.932	18.08016266
630.122	18.08514208
630.312	18.09077502
630.502	18.09805621
630.692	18.10125249
630.882	18.11135833
631.072	18.12015961
631.262	18.1211149
631.452	18.12513107
631.642	18.13020923
631.832	18.13646855
632.022	18.14558648
632.212	18.15137357
632.402	18.1576339
632.592	18.16874577
632.782	18.17232361
632.972	18.1757396
633.162	18.18409484
633.352	18.19412215
633.542	18.19981185
633.732	18.20740014
633.922	18.21281403
634.111	18.21617102
634.301	18.22079083
634.491	18.22897526
634.681	18.23649644
634.871	18.24001334
635.06	18.24015298
635.25	18.24911518
635.44	18.25830846
635.63	18.26205439
635.819	18.26601086
636.009	18.27075256
636.199	18.28286102
636.388	18.29303675
636.578	18.29918224
636.768	18.30742251
636.957	18.31533764
637.147	18.31927068
637.337	18.32366059
637.526	18.33042863
637.716	18.33298835
637.905	18.34133934
638.095	18.35308604
638.284	18.35958857
638.474	18.36206611
638.663	18.37037015
638.853	18.37854213
639.042	18.38865954
639.232	18.39448096
639.421	18.40003221
639.611	18.41119063
639.8	18.41723284
639.99	18.42401251
640.179	18.42186816
640.368	18.42308209
640.558	18.42635317
640.747	18.43082675
640.936	18.43682419
641.126	18.44815112
641.315	18.44975398
641.504	18.45249519
641.694	18.46583518
641.883	18.47129737
642.072	18.47273283
642.261	18.47693717
642.451	18.48519826
642.64	18.49220129
642.829	18.49535476
643.018	18.50039362
643.207	18.50573002
643.397	18.51317787
643.586	18.51549337
643.775	18.52170351
643.964	18.52871002
644.153	18.53654705
644.342	18.54170769
644.531	18.54820651
644.72	18.55317077
644.909	18.55856583
645.098	18.56219794
645.287	18.57032529
645.476	18.57891169
645.665	18.57951131
645.854	18.57993452
646.043	18.58926906
646.232	18.59772102
646.421	18.60022697
646.61	18.60150129
646.799	18.60801631
646.988	18.61374182
647.177	18.62005046
647.365	18.62346458
647.554	18.63021627
647.743	18.63914079
647.932	18.64352086
648.121	18.65262311
648.309	18.66146925
648.498	18.66709126
648.687	18.67119837
648.876	18.67920708
649.064	18.67986007
649.253	18.68622367
649.442	18.69378269
649.63	18.70117173
649.819	18.70717636
650.008	18.71224768
650.196	18.71553262
650.385	18.71980584
650.574	18.72754872
650.762	18.72950333
650.951	18.73366618
651.139	18.73570821
651.328	18.74625476
651.516	18.75289607
651.705	18.7550294
651.893	18.75998715
652.082	18.76558807
652.27	18.76684797
652.459	18.77312025
652.647	18.78001307
652.836	18.78571447
653.024	18.79514835
653.213	18.79900805
653.401	18.80083798
653.589	18.80832213
653.778	18.81464981
653.966	18.8193394
654.154	18.82652342
654.343	18.83620298
654.531	18.84586577
654.719	18.85655618
654.908	18.86463431
655.096	18.87462139
655.284	18.87661314
655.472	18.88085836
655.661	18.88558821
655.849	18.89207556
656.037	18.89649171
656.225	18.90182301
656.413	18.90622603
656.601	18.91105493
656.79	18.91863128
656.978	18.92230755
657.166	18.92903014
657.354	18.93272897
657.542	18.93484735
657.73	18.93803057
657.918	18.94501426
658.106	18.95584942
658.294	18.95900097
658.482	18.96325781
658.67	18.97046316
658.858	18.97277787
659.046	18.98185652
659.234	18.98662881
659.422	18.98900634
659.61	18.99618876
659.798	18.99943894
659.986	19.00112834
660.173	19.0108214
660.361	19.01669797
660.549	19.02399481
660.737	19.02762786
660.925	19.03169085
661.113	19.0335147
661.3	19.04698782
661.488	19.05395258
661.676	19.05919384
661.864	19.06211979
662.051	19.06379828
662.239	19.07328419
662.427	19.07836031
662.614	19.07754663
662.802	19.08551897
662.99	19.08951464
663.177	19.09742968
663.365	19.10603333
663.553	19.11071024
663.74	19.11759474
663.928	19.12816875
664.115	19.12889784
664.303	19.13324857
664.49	19.13678013
664.678	19.14158514
664.866	19.15119206
665.053	19.15796384
665.24	19.16632383
665.428	19.17001254
665.615	19.17714713
665.803	19.18270747
665.99	19.18851989
666.178	19.19414606
666.365	19.19301183
666.552	19.2009096
666.74	19.20614277
666.927	19.2044445
667.114	19.20160347
667.302	19.20002965
667.489	19.20569727
667.676	19.20527896
667.864	19.20962759
668.051	19.21410039
668.238	19.22262077
668.425	19.22655144
668.613	19.22842485
668.8	19.2305996
668.987	19.23496339
669.174	19.23356039
669.361	19.24332197
669.548	19.25431832
669.736	19.26497234
669.923	19.2671799
670.11	19.27194121
670.297	19.28392612
670.484	19.29125239
670.671	19.29713575
670.858	19.30750382
671.045	19.32148007
671.232	19.33216918
671.419	19.33461633
671.606	19.34640655
671.793	19.34758492
671.98	19.35483661
672.167	19.359772
672.354	19.37028349
672.541	19.38105306
672.728	19.38997972
672.915	19.40192193
673.101	19.40632023
673.288	19.41009254
673.475	19.4138677
673.662	19.40870956
673.849	19.41517938
674.035	19.42096236
674.222	19.42685407
674.409	19.43255497
674.596	19.44155894
674.783	19.45111184
674.969	19.45764767
675.156	19.46507317
675.343	19.47690136
675.529	19.48323594
675.716	19.49065536
675.903	19.49950583
676.089	19.50769907
676.276	19.51393945
676.462	19.52193898
676.649	19.53032505
676.836	19.53426195
677.022	19.54238147
677.209	19.5502503
677.395	19.55671894
677.582	19.56815916
677.768	19.57563314
677.955	19.58014823
678.141	19.58243261
678.328	19.58837538
678.514	19.58874772
678.701	19.59108652
678.887	19.59429339
679.073	19.60648656
679.26	19.61076036
679.446	19.61724275
679.632	19.62433812
679.819	19.63230086
680.005	19.63913859
680.191	19.64106755
680.378	19.64225598
680.564	19.64537595
680.75	19.6579985
680.936	19.66706297
681.123	19.67327956
681.309	19.68177479
681.495	19.69272188
681.681	19.70535577
681.867	19.71836782
682.054	19.73444007
682.24	19.74505272
682.426	19.75517442
682.612	19.76789376
682.798	19.77946199
682.984	19.78735969
683.17	19.79657277
683.356	19.8106052
683.542	19.8239351
683.728	19.82787266
683.914	19.83675086
684.1	19.85415637
684.286	19.86708482
684.472	19.87915312
684.658	19.88365366
684.844	19.89317504
685.03	19.90191873
685.216	19.91466215
685.402	19.92730877
685.588	19.93354447
685.774	19.93940992
685.96	19.94443054
686.145	19.95545534
686.331	19.96393312
686.517	19.97543184
686.703	19.98854295
686.889	19.9966829
687.074	20.0065422
687.26	20.01229607
687.446	20.02381902
687.631	20.03812024
687.817	20.04552013
688.003	20.04633351
688.189	20.05370947
688.374	20.07054222
688.56	20.08022304
688.745	20.09504699
688.931	20.10507436
689.117	20.11278634
689.302	20.12274328
689.488	20.1319189
689.673	20.15055775
689.859	20.16472583
690.044	20.17466789
690.23	20.18966484
690.415	20.20098406
690.601	20.20210522
690.786	20.2174582
690.972	20.23290566
691.157	20.24707974
691.343	20.25366448
691.528	20.27644997
691.713	20.29232463
691.899	20.31692655
692.084	20.33588136
692.269	20.34350392
692.455	20.36212668
692.64	20.3689115
692.825	20.382966
693.011	20.39559191
693.196	20.40432139
693.381	20.41902252
693.566	20.42704025
693.752	20.44271106
693.937	20.45677416
694.122	20.46793753
694.307	20.48595053
694.492	20.50471119
694.678	20.51390958
694.863	20.52766453
695.048	20.5413104
695.233	20.55679089
695.418	20.55950273
695.603	20.57200676
695.788	20.57814928
695.973	20.58904661
696.158	20.60825905
696.343	20.61649211
696.528	20.63340422
696.713	20.64238823
696.898	20.65471551
697.083	20.67441485
697.268	20.69150127
697.453	20.70785052
697.638	20.71957212
697.823	20.73322383
698.008	20.75174538
698.192	20.76140935
698.377	20.77746282
698.562	20.79296607
698.747	20.80432833
698.932	20.82115027
699.117	20.83541086
699.301	20.85465119
699.486	20.86736186
699.671	20.88894793
699.856	20.90347717
700.04	20.90783898
700.225	20.92329945
700.41	20.93740727
700.594	20.95239001
700.779	20.97300555
700.964	20.98966644
701.148	21.00483602
701.333	21.02011568
701.517	21.03954027
701.702	21.05764612
701.887	21.07700198
702.071	21.08982791
702.256	21.10861123
702.44	21.12667194
702.625	21.14150455
702.809	21.15870409
702.994	21.17844155
703.178	21.19236504
703.362	21.21272173
703.547	21.22490747
703.731	21.2448416
703.916	21.27154211
704.1	21.29064467
704.284	21.31141531
704.469	21.33016691
704.653	21.34157311
704.837	21.35813467
705.022	21.37877414
705.206	21.38840755
705.39	21.40642557
705.575	21.41790173
705.759	21.42925479
705.943	21.4485448
706.127	21.46014908
706.311	21.47305827
706.496	21.49355208
706.68	21.50780233
706.864	21.52154414
707.048	21.53860816
707.232	21.54963891
707.416	21.56427563
707.6	21.57441122
707.785	21.58197355
707.969	21.58840584
708.153	21.59589828
708.337	21.61460766
708.521	21.63253708
708.705	21.64638744
708.889	21.6538646
709.073	21.67318423
709.257	21.68692039
709.441	21.71581127
709.624	21.7301993
709.808	21.73596838
709.992	21.75421329
710.176	21.77004144
710.36	21.78589298
710.544	21.79642425
710.728	21.81111481
710.912	21.82444308
711.095	21.83975939
711.279	21.85565943
711.463	21.87370148
711.647	21.88887062
711.83	21.90948825
712.014	21.93269
712.198	21.94286756
712.382	21.95741264
712.565	21.9732316
712.749	21.98910602
712.933	22.00956945
713.116	22.02241983
713.3	22.02793423
713.483	22.03778802
713.667	22.05816801
713.851	22.06731293
714.034	22.07860445
714.218	22.08759725
714.401	22.10410574
714.585	22.11687016
714.768	22.1276129
714.952	22.14355212
715.135	22.15885384
715.319	22.17174489
715.502	22.18860132
715.686	22.21004497
715.869	22.21860772
716.052	22.24137762
716.236	22.25420013
716.419	22.26052793
716.602	22.27247624
716.786	22.28042602
716.969	22.29031031
717.152	22.30502361
717.336	22.32039825
717.519	22.33788075
717.702	22.35207845
717.885	22.37304152
718.069	22.39136718
718.252	22.41111251
718.435	22.42596887
718.618	22.43979027
718.801	22.459643
718.985	22.46674137
719.168	22.4812447
719.351	22.50003716
719.534	22.50454529
719.717	22.51347433
719.9	22.53077622
720.083	22.54484616
720.266	22.56584019
720.449	22.57967871
720.632	22.58832934
720.815	22.60798306
720.998	22.62350814
721.181	22.64506605
721.364	22.65939254
721.547	22.68154088
721.73	22.69539437
721.913	22.71391081
722.096	22.72548363
722.279	22.73863713
722.461	22.75424577
722.644	22.76978718
722.827	22.79220702
723.01	22.80551692
723.193	22.80940693
723.376	22.83118412
723.558	22.85607425
723.741	22.86467612
723.924	22.87662339
724.107	22.88621558
724.289	22.89969619
724.472	22.91580018
724.655	22.92696078
724.837	22.9348295
725.02	22.9466858
725.203	22.95620886
725.385	22.96373003
725.568	22.97100274
725.75	22.97994696
725.933	22.98737859
726.115	22.99322034
726.298	23.00953317
726.481	23.02341756
726.663	23.03138023
726.845	23.04351372
727.028	23.06002203
727.21	23.06947517
727.393	23.07313288
727.575	23.08541398
727.758	23.10125117
727.94	23.11357427
728.122	23.12307577
728.305	23.13529008
728.487	23.14137043
728.67	23.15300265
728.852	23.1678875
729.034	23.18218047
729.216	23.19326447
729.399	23.20528213
729.581	23.21672545
729.763	23.22941395
729.945	23.24264141
730.128	23.24864759
730.31	23.24927115
730.492	23.26588777
730.674	23.27681974
730.856	23.28621217
731.039	23.29395513
731.221	23.30968129
731.403	23.32096293
731.585	23.33284994
731.767	23.34306314
731.949	23.35161043
732.131	23.3644669
732.313	23.37423887
732.495	23.381601
732.677	23.38548196
732.859	23.3879885
733.041	23.39737347
733.223	23.41137515
733.405	23.41515847
733.587	23.42757576
733.769	23.44490006
733.951	23.45492613
734.132	23.47024924
734.314	23.47232141
734.496	23.48094991
734.678	23.49081069
734.86	23.50366388
735.042	23.51301502
735.223	23.51627842
735.405	23.52328443
735.587	23.52685927
735.769	23.53696948
735.95	23.54090606
736.132	23.55332351
736.314	23.56118749
736.495	23.56634466
736.677	23.58191668
736.859	23.58719422
737.04	23.58513872
737.222	23.59981993
737.403	23.60384412
737.585	23.6098305
737.767	23.6150043
737.948	23.62370661
738.13	23.63437484
738.311	23.63720476
738.493	23.64363942
738.674	23.64963829
738.856	23.65425975
739.037	23.66703718
739.219	23.67527745
739.4	23.69131681
739.581	23.70484648
739.763	23.71112022
739.944	23.71639001
740.125	23.72341343
740.307	23.73424532
740.488	23.74356663
740.669	23.75674312
740.851	23.77224703
741.032	23.77935357
741.213	23.78649273
741.395	23.79396964
741.576	23.81104529
741.757	23.81678766
741.938	23.82591263
742.119	23.83786995
742.301	23.84529606
742.482	23.85527293
742.663	23.86372869
742.844	23.86800369
743.025	23.87425132
743.206	23.87861982
743.387	23.88259125
743.568	23.89660993
743.749	23.90719622
743.93	23.91733181
744.111	23.92248558
744.292	23.92487194
744.473	23.93219624
744.654	23.93731907
744.835	23.93807456
745.016	23.94653042
745.197	23.95292693
745.378	23.95735055
745.559	23.96679208
745.74	23.97691431
745.921	23.98766403
746.102	23.9991944
746.282	24.00629552
746.463	24.01191852
746.644	24.01840023
746.825	24.02642351
747.006	24.03688359
747.186	24.04492425
747.367	24.04796659
747.548	24.05338645
747.728	24.0616466
747.909	24.07030309
748.09	24.08156698
748.27	24.0880293
748.451	24.09179067
748.632	24.10585905
748.812	24.10864987
748.993	24.11576847
749.173	24.11724303
749.354	24.12788951
749.535	24.13538351
749.715	24.1412196
749.896	24.14700864
750.076	24.14804133
750.257	24.15470355
750.437	24.16628789
750.618	24.1682602
750.798	24.17330747
750.978	24.18766397
751.159	24.1973548
751.339	24.20134362
751.52	24.20214089
751.7	24.20959365
751.88	24.2114662
752.061	24.21449361
752.241	24.22384906
752.421	24.22818775
752.601	24.24534805
752.782	24.25871505
752.962	24.27315899
753.142	24.27635519
753.322	24.27469729
753.503	24.28358452
753.683	24.28917245
753.863	24.30655307
754.043	24.31581835
754.223	24.32424246
754.403	24.33846352
754.583	24.3445428
754.764	24.33984585
754.944	24.35049347
755.124	24.35829117
755.304	24.37060359
755.484	24.37549997
755.664	24.38944428
755.844	24.39870535
756.024	24.40861275
756.204	24.41760705
756.384	24.41831344
756.564	24.41944355
756.743	24.42246492
756.923	24.42376599
757.103	24.43767002
757.283	24.44726966
757.463	24.45794647
757.643	24.45843196
757.823	24.46793206
758.002	24.46271154
758.182	24.47998796
758.362	24.48788694
758.542	24.49840291
758.721	24.51045205
758.901	24.52183335
759.081	24.5420434
759.261	24.56337545
759.44	24.57530339
759.62	24.58351983
759.8	24.59148582
759.979	24.60083858
760.159	24.60584126
760.338	24.61796126
760.518	24.61659404
760.698	24.61832963
760.877	24.62070613
761.057	24.62170272
761.236	24.62486435
761.416	24.63872595
761.595	24.65008181
761.775	24.65934264
761.954	24.64995469
762.133	24.65246503
762.313	24.6577869
762.492	24.65344224
762.672	24.65880917
762.851	24.65572936
763.03	24.65243784
763.21	24.6552267
763.389	24.66412152
763.568	24.66199415
763.748	24.66267628
763.927	24.66873452
764.106	24.6661605
764.286	24.67450572
764.465	24.68312694
764.644	24.6887065
764.823	24.69818895
765.002	24.7024351
765.182	24.70213269
765.361	24.6927294
765.54	24.70122909
765.719	24.71064039
765.898	24.72169612
766.077	24.72541468
766.256	24.73156967
766.435	24.72781169
766.614	24.73575123
766.793	24.73688371
766.972	24.7363143
767.151	24.73621234
767.33	24.74752194
767.509	24.75403346
767.688	24.76020354
767.867	24.76263036
768.046	24.77826479
768.225	24.786864
768.404	24.79804399
768.583	24.79605764
768.762	24.80466487
768.94	24.8053809
769.119	24.82274134
769.298	24.83095766
769.477	24.83296428
769.656	24.83899024
769.834	24.83996901
770.013	24.84355673
770.192	24.85521707
770.37	24.86181732
770.549	24.8738967
770.728	24.87959408
770.906	24.88785498
771.085	24.89592718
771.264	24.90072949
771.442	24.91478653
771.621	24.92886489
771.799	24.9247491
771.978	24.92956809
772.157	24.92881894
772.335	24.93996405
772.514	24.94212396
772.692	24.95203347
772.871	24.95123747
773.049	24.95109483
773.228	24.96327661
773.406	24.96945073
773.584	24.97811324
773.763	24.98200676
773.941	24.98650818
774.119	24.98707058
774.298	24.98925902
774.476	24.99318763
774.655	25.00253229
774.833	25.00933184
775.011	25.0125681
775.189	25.00746359
775.368	25.01120154
775.546	25.01825221
775.724	25.02327963
775.902	25.0284582
776.08	25.03464383
776.259	25.04596561
776.437	25.0511485
776.615	25.05464239
776.793	25.06596186
776.971	25.07107713
777.149	25.07060094
777.327	25.08456769
777.505	25.09202152
777.683	25.10272719
777.861	25.11209787
778.04	25.1262113
778.218	25.13977853
778.395	25.14248442
778.573	25.13806764
778.751	25.14646094
778.929	25.1537835
779.107	25.15561737
779.285	25.16161619
779.463	25.16700363
779.641	25.17631314
779.819	25.17511783
779.997	25.18349473
780.174	25.19261417
780.352	25.2074908
780.53	25.20867271
780.708	25.21078665
780.886	25.21581394
781.063	25.21456998
781.241	25.21448198
781.419	25.21960311
781.596	25.23170256
781.774	25.22922584
781.952	25.22455208
782.129	25.23831392
782.307	25.25066729
782.485	25.25464835
782.662	25.25864634
782.84	25.27080765
783.017	25.27737424
783.195	25.28928188
783.372	25.29123962
783.55	25.30162529
783.727	25.29554797
783.905	25.29602627
784.082	25.29888295
784.26	25.30922884
784.437	25.30866529
784.615	25.30926457
784.792	25.32408865
784.969	25.34033903
785.147	25.34858198
785.324	25.34153427
785.501	25.35057912
785.679	25.3569104
785.856	25.34678688
786.033	25.35429954
786.211	25.3629775
786.388	25.36960526
786.565	25.36836675
786.742	25.37302134
786.92	25.37760342
787.097	25.38388632
787.274	25.38660012
787.451	25.39732002
787.628	25.40428758
787.805	25.40951494
787.982	25.4097022
788.16	25.41492575
788.337	25.42854589
788.514	25.42170691
788.691	25.41786018
788.868	25.41897081
789.045	25.43471543
789.222	25.43854249
789.399	25.44150754
789.576	25.44397224
789.753	25.44817328
789.93	25.44962068
790.106	25.45266618
790.283	25.45373868
790.46	25.45309886
790.637	25.44425211
790.814	25.45373541
790.991	25.4609971
791.168	25.45146978
791.344	25.45141489
791.521	25.45259329
791.698	25.45895448
791.875	25.47059801
792.051	25.4774694
792.228	25.47397903
792.405	25.48870777
792.581	25.49233209
792.758	25.4813301
792.935	25.4745061
793.111	25.47823048
793.288	25.48626871
793.465	25.48932984
793.641	25.49200335
793.818	25.50144338
793.994	25.51097835
794.171	25.52083039
794.347	25.52404244
794.524	25.51407517
794.7	25.52382488
794.877	25.53429129
795.053	25.53922902
795.23	25.53778133
795.406	25.54171813
795.583	25.52835913
795.759	25.52304428
795.935	25.54499277
796.112	25.5333019
796.288	25.53659832
796.464	25.53606052
796.641	25.55258478
796.817	25.57409272
796.993	25.5857734
797.169	25.58046517
797.346	25.59127979
797.522	25.58874797
797.698	25.60540442
797.874	25.61586381
798.051	25.61952584
798.227	25.62894016
798.403	25.62158765
798.579	25.63817814
798.755	25.65277946
798.931	25.66295874
799.107	25.66337133
799.283	25.67724883
799.459	25.68685968
799.635	25.69717706
799.811	25.70691838
799.987	25.7169276
800.163	25.72829072
800.339	25.72739162
800.515	25.72949111
800.691	25.72397074
800.867	25.72307138
801.043	25.72262032
801.219	25.72376815
801.395	25.72397862
801.571	25.73047401
801.746	25.7412578
801.922	25.75147739
802.098	25.74873195
802.274	25.73374882
802.45	25.72515919
802.625	25.72894871
802.801	25.72576272
802.977	25.72459359
803.152	25.73074942
803.328	25.71775175
803.504	25.71755972
803.679	25.70795774
803.855	25.74692194
804.031	25.74329727
804.206	25.73857929
804.382	25.76116875
804.557	25.78884038
804.733	25.7819404
804.909	25.79378591
805.084	25.78066202
805.26	25.75497975
805.435	25.76522723
805.61	25.76523799
805.786	25.77411604
805.961	25.78865373
806.137	25.80465166
806.312	25.79941335
806.488	25.81018405
806.663	25.81154795
806.838	25.79937228
807.014	25.81197921
807.189	25.82221974
807.364	25.83995382
807.54	25.79385129
807.715	25.80087525
807.89	25.80608161
808.065	25.78719873
808.241	25.76993465
808.416	25.77212731
808.591	25.76357589
808.766	25.78361555
808.941	25.81166849
809.116	25.8014805
809.291	25.79954777
809.467	25.8030033
809.642	25.80675259
809.817	25.78012495
809.992	25.7818523
810.167	25.77194204
810.342	25.78280902
810.517	25.79589198
810.692	25.78710787
810.867	25.80142295
811.042	25.79423036
811.217	25.81784273
811.392	25.8250299
811.567	25.82057722
811.741	25.83100209
811.916	25.8361425
812.091	25.85195671
812.266	25.85417798
812.441	25.83295303
812.616	25.81899586
812.79	25.82512376
812.965	25.82868928
813.14	25.83651444
813.315	25.81609249
813.489	25.83539752
813.664	25.85703362
813.839	25.86613505
814.013	25.85143799
814.188	25.828943
814.363	25.82298688
814.537	25.82371216
814.712	25.83582111
814.887	25.81246472
815.061	25.82374152
815.236	25.8311441
815.41	25.82148632
815.585	25.81701109
815.759	25.83477656
815.934	25.87106263
816.108	25.87529141
816.283	25.87479272
816.457	25.87788254
816.631	25.88758326
816.806	25.90102592
816.98	25.89976172
817.155	25.89351235
817.329	25.8782352
817.503	25.86949249
817.678	25.92980058
817.852	25.95467184
818.026	25.95776709
818.201	25.93764716
818.375	25.91008231
818.549	25.92323219
818.723	25.91848168
818.897	25.90189951
819.072	25.90658817
819.246	25.91944469
819.42	25.90392252
819.594	25.86953959
819.768	25.89345989
819.942	25.92316389
820.116	25.90821491
820.29	25.89958023
820.465	25.87503983
820.639	25.89549784
820.813	25.89827975
820.987	25.91736462
821.161	25.94087671
821.335	25.88809731
821.509	25.88194583
821.682	25.91916747
821.856	25.95072354
822.03	25.97525776
822.204	25.97110366
822.378	25.9608668
822.552	25.97438686
822.726	25.96650281
822.9	25.99085431
823.073	25.98606513
823.247	25.97202975
823.421	25.9274735
823.595	25.92866519
823.768	25.93690082
823.942	25.9521952
824.116	25.94074356
824.289	25.94479964
824.463	25.94400986
824.637	25.92325371
824.81	25.9208615
824.984	25.93982136
825.158	25.9419582
825.331	25.88792945
825.505	25.88537453
825.678	25.89640473
825.852	25.91688752
826.025	25.91678422
826.199	25.92349943
826.372	25.94929787
826.546	25.93246812
826.719	25.95148877
826.893	25.99972457
827.066	26.01615341
827.24	25.99254653
827.413	25.99824818
827.586	25.99798204
827.76	26.03348025
827.933	26.03833273
828.106	26.0514445
828.28	26.07408507
828.453	26.06735466
828.626	26.0803342
828.799	26.09157913
828.973	26.11943916
829.146	26.11814982
829.319	26.10113601
829.492	26.06805425
829.665	26.09518061
829.839	26.14573878
830.012	26.11863385
830.185	26.11060802
830.358	26.05339286
830.531	26.03153821
830.704	26.05059634
830.877	26.06563887
831.05	26.06789856
831.223	26.06694406
831.396	26.03941043
831.569	26.03731733
831.742	26.01003284
831.915	25.99419339
832.088	25.97850657
832.261	25.97162215
832.434	25.98521704
832.607	25.994503
832.779	25.9831804
832.952	25.98610424
833.125	25.99852908
833.298	25.99757889
833.471	25.95981448
833.643	25.97875823
833.816	26.00571917
833.989	26.0467041
834.162	26.06042135
834.334	26.05478551
834.507	26.0304435
834.68	26.02102959
834.852	26.01100381
835.025	26.05701882
835.198	26.09674748
835.37	26.14783061
835.543	26.17440871
835.715	26.1970407
835.888	26.2028565
836.061	26.19587678
836.233	26.20213976
836.406	26.17277638
836.578	26.18462094
836.751	26.20273191
836.923	26.19224253
837.095	26.17567335
837.268	26.18832032
837.44	26.19829641
837.613	26.20130027
837.785	26.18117674
837.957	26.15605384
838.13	26.1462872
838.302	26.18612039
838.474	26.23543648
838.647	26.17154085
838.819	26.14470946
838.991	26.10681029
839.163	26.08734343
839.336	26.05712194
839.508	26.04905679
839.68	26.01855831
839.852	25.99729161
840.024	26.00761033
840.196	26.00291651
840.368	25.96232573
840.541	25.96252989
840.713	25.96090036
840.885	25.96936194
841.057	25.91226625
841.229	25.916068
841.401	25.91289462
841.573	25.93835829
841.745	25.96924962
841.917	25.91794426
842.089	25.84399265
842.261	25.85110884
842.432	25.82279506
842.604	25.81804925
842.776	25.82825503
842.948	25.86890365
843.12	25.87556627
843.292	25.9200093
843.464	25.94034131
843.635	25.94298244
843.807	25.93452502
843.979	25.99537601
844.151	25.93114195
844.322	25.95195563
844.494	25.94785459
844.666	25.93201816
844.837	25.92547524
845.009	25.93116113
845.181	25.90180131
845.352	25.90124434
845.524	25.94264636
845.695	25.94721337
845.867	25.95754782
846.039	25.96076713
846.21	25.98028534
846.382	26.02646306
846.553	26.04180172
846.725	26.04814659
846.896	26.01352044
847.068	26.00906782
847.239	26.02341949
847.41	26.07791884
847.582	26.03353057
847.753	26.07875948
847.925	26.07149945
848.096	26.03979617
848.267	26.06156513
848.439	26.08580311
848.61	26.08082252
848.781	26.12835738
848.952	26.19559388
849.124	26.17503963
849.295	26.1956343
849.466	26.22622943
849.637	26.23696199
849.808	26.21730029
849.98	26.13612326
850.151	26.06400667
850.322	26.06119336
850.493	26.0651791
850.664	26.04370924
850.835	26.09432847
851.006	26.00552353
851.177	25.96247682
851.348	25.93522334
851.519	25.92954538
851.69	25.96849059
851.861	26.02218472
852.032	26.01944354
852.203	26.03971937
852.374	26.00948665
852.545	25.9593125
852.716	25.91927398
852.887	25.94302185
853.057	25.91120262
853.228	25.95433473
853.399	25.9746603
853.57	25.96921181
853.741	26.04093998
853.911	26.03506392
854.082	26.04283865
854.253	26.1267124
854.424	26.10068816
854.594	26.2102452
854.765	26.27413246
854.936	26.33128968
855.106	26.31453664
855.277	26.28892111
855.447	26.25725936
855.618	26.24034923
855.789	26.23456404
855.959	26.19816369
856.13	26.16837416
856.3	26.22347747
856.471	26.15758475
856.641	26.15191625
856.812	26.11202865
856.982	26.09316515
857.153	26.10800955
857.323	26.07781759
857.493	26.06759809
857.664	26.07361564
857.834	25.98517627
858.004	25.92245976
858.175	25.92148044
858.345	25.91013868
858.515	25.89690774
858.686	25.89504204
858.856	25.93947047
859.026	25.94441259
859.196	25.95252699
859.367	25.97755836
859.537	26.05866742
859.707	26.01616697
859.877	26.04300233
860.047	26.12374831
860.217	26.14220156
860.387	26.11494176
860.558	26.13532128
860.728	26.09249981
860.898	26.12213531
861.068	26.09989875
861.238	26.1294865
861.408	26.04935918
861.578	26.02636369
861.748	25.95296589
861.918	26.03391984
862.088	26.03034825
862.257	26.05328205
862.427	25.98813589
862.597	26.04734307
862.767	26.02063418
862.937	25.89668915
863.107	25.84993542
863.277	25.84622857
863.446	25.80304066
863.616	25.8040648
863.786	25.83161617
863.956	25.83317877
864.125	25.7603775
864.295	25.7962824
864.465	25.70028022
864.634	25.64809075
864.804	25.59666934
864.974	25.71740428
865.143	25.80822437
865.313	25.74056276
865.482	25.71796625
865.652	25.62121276
865.822	25.55737312
865.991	25.60881737
866.161	25.53494217
866.33	25.56827429
866.5	25.7068538
866.669	25.76511602
866.838	25.73249011
867.008	25.6207188
867.177	25.61476553
867.347	25.57224996
867.516	25.61837601
867.685	25.76502788
867.855	25.83442063
868.024	25.91163218
868.193	26.04871238
868.363	26.12272043
868.532	26.05326403
868.701	26.04393608
868.87	26.03755276
869.04	25.97846192
869.209	26.01384636
869.378	26.07227173
869.547	25.95439636
869.716	25.96093059
869.885	25.99561919
870.055	25.93983854
870.224	25.86437871
870.393	25.9825078
870.562	26.12709208
870.731	26.06669063
870.9	26.05345882
871.069	26.07983592
871.238	26.06833634
871.407	25.97309279
871.576	25.91756723
871.745	25.81982197
871.914	25.83097966
872.083	25.81525857
872.251	25.78580221
872.42	25.81772794
872.589	25.78525067
872.758	25.83493174
872.927	25.77232933
873.096	25.84674139
873.264	25.75838403
873.433	25.70173017
873.602	25.65248577
873.771	25.74765632
873.939	25.65473364
874.108	25.61796635
874.277	25.64041781
874.445	25.73745229
874.614	25.6108599
874.783	25.68097107
874.951	25.74180933
875.12	25.75318477
875.288	25.86418748
875.457	25.76291613
875.625	25.80986192
875.794	25.80410302
875.962	25.76146855
876.131	25.68012348
876.299	25.57090562
876.468	25.5481095
876.636	25.52422709
876.805	25.60598484
876.973	25.4737833
877.141	25.56261474
877.31	25.59586386
877.478	25.68118083
877.647	25.6636961
877.815	25.51236896
877.983	25.43286637
878.151	25.48191159
878.32	25.33784376
878.488	25.26755488
878.656	25.21015707
878.824	25.03168027
878.992	25.15515323
879.161	25.18610781
879.329	25.20444883
879.497	25.15020842
879.665	25.27996
879.833	25.3829526
880.001	25.30407481
880.169	25.17256787
880.337	25.08987065
880.505	25.29030926
880.673	25.19987347
880.841	24.98197304
881.009	24.89474106
881.177	24.68948546
881.345	24.85936315
881.513	24.93315485
881.681	24.80794394
881.849	24.7344052
882.017	24.88359064
882.185	25.02763063
882.352	24.84182842
882.52	24.44769307
882.688	24.28024088
882.856	24.08719212
883.024	24.34322042
883.191	24.20600026
883.359	24.1335946
883.527	24.04766293
883.694	24.13270051
883.862	24.1174684
884.03	23.90221082
884.197	23.91716999
884.365	24.05178888
884.533	23.94284091
884.7	24.21490111
884.868	24.13413322
885.035	24.06556241
885.203	24.20043769
885.37	24.17461584
885.538	23.93898907
885.705	23.77101673
885.873	24.08848271
886.04	24.30802311
886.208	24.35453042
886.375	24.5803525
886.542	24.22533418
886.71	24.35670191
886.877	24.55743893
