Data from areia_Reflection_00002.txt Node
Date: Thu Apr 11 13:49:36 AEST 2024
User: uqkchene_local
Spectrometer: USB4E02642
Trigger mode: 4
Integration Time (sec): 2.541000E-2
Scans to average: 101
Electric dark correction enabled: true
Nonlinearity correction enabled: false
Boxcar width: 10
XAxis mode: Wavelengths
Number of Pixels in Spectrum: 3648
>>>>>Begin Spectral Data<<<<<
179.217	63.09550946
179.432	63.32819723
179.647	59.13130974
179.862	57.1141919
180.077	73.4084507
180.293	71.10619469
180.508	83.08823529
180.723	56.6552901
180.938	31.78216829
181.153	23.58266117
181.368	18.28912002
181.583	13.36418587
181.798	8.62344299
182.013	6.7914905
182.228	8.71826765
182.443	6.69406929
182.658	7.24932836
182.873	5.84249652
183.088	8.34338418
183.303	4.99645761
183.518	3.86903825
183.733	4.38945139
183.948	3.92146154
184.162	3.31985256
184.377	3.215879
184.592	1.53717476
184.807	1.71287002
185.022	1.04397278
185.237	1.95724757
185.452	1.03049741
185.667	0.23709267
185.882	-0.06131795
186.096	0.75528414
186.311	0.64614796
186.526	0.19486784
186.741	-0.66336922
186.956	-0.50753494
187.17	-1.82320767
187.385	-1.66663414
187.6	-1.92146219
187.815	-0.63187185
188.03	-0.82916506
188.244	-0.39983853
188.459	-0.69661671
188.674	-0.52911067
188.889	-0.03665265
189.103	0.26528281
189.318	1.06602013
189.533	1.25420148
189.747	1.10828594
189.962	1.89286609
190.177	1.9550418
190.391	2.20302293
190.606	0.57365808
190.821	0.34068253
191.035	-0.37862607
191.25	-0.52898692
191.465	-1.09369448
191.679	0.26705132
191.894	0.09826272
192.109	-0.01770782
192.323	-0.60691768
192.538	-0.99399626
192.752	-1.55831605
192.967	-1.89329797
193.181	-2.34210257
193.396	-3.07029246
193.611	-2.1659108
193.825	-2.10065015
194.04	-1.01118053
194.254	-0.51037073
194.469	-0.81233933
194.683	-0.67711317
194.898	-1.37234327
195.112	-1.63917376
195.327	-1.67374417
195.541	-1.15737416
195.756	-1.19508052
195.97	-0.40126969
196.184	0.49041107
196.399	1.14559508
196.613	0.30082825
196.828	-0.0743349
197.042	0.8548322
197.257	1.34434052
197.471	1.05605964
197.685	1.94311462
197.9	1.76070802
198.114	2.09741885
198.328	0.5677812
198.543	-0.98126507
198.757	-1.9011194
198.971	-1.69896123
199.186	-0.32572694
199.4	-0.66034604
199.614	0.41425171
199.829	0.225123
200.043	1.14027578
200.257	0.62131097
200.471	-0.8577621
200.686	-1.00194874
200.9	-2.15264188
201.114	-0.75581075
201.328	0.08259457
201.543	-0.55047223
201.757	-1.08100076
201.971	-1.21404211
202.185	-1.85658575
202.399	-2.57171304
202.614	-3.59527187
202.828	-1.8944826
203.042	-0.74993388
203.256	-0.00186811
203.47	-0.52942602
203.684	-2.52826544
203.899	-1.98025399
204.113	-2.66968326
204.327	-2.47290862
204.541	-3.9298364
204.755	-2.59939403
204.969	-1.77988727
205.183	-1.44078325
205.397	-1.14882507
205.611	-1.45393986
205.825	-1.59753883
206.039	-1.39342598
206.253	-0.61672877
206.467	-0.22254511
206.681	0.32738313
206.895	1.92967255
207.109	2.29062276
207.323	1.40963189
207.537	1.20429953
207.751	1.45106902
207.965	1.80629592
208.179	2.90625394
208.393	2.99728997
208.607	3.10013717
208.821	3.937856
209.035	4.75846109
209.249	3.97382208
209.463	4.12543352
209.677	2.86854034
209.891	2.79616298
210.104	2.00193972
210.318	2.2739301
210.532	2.69091042
210.746	2.41175181
210.96	2.90019239
211.174	2.52779129
211.387	2.11370657
211.601	1.9643244
211.815	1.83641526
212.029	0.50381957
212.243	0.33639256
212.456	-0.40053405
212.67	-1.08731466
212.884	-1.02494577
213.098	-0.77221458
213.311	-1.2114302
213.525	-0.90085259
213.739	0.03203588
213.953	0.38358402
214.166	1.25448666
214.38	1.32179637
214.594	1.81380585
214.807	1.0758916
215.021	0.31356798
215.235	0.48343025
215.448	0.00529661
215.662	0.42188944
215.876	0.53965601
216.089	0.05905033
216.303	-0.20500276
216.516	0.14685291
216.73	0.29945723
216.944	1.27829426
217.157	1.02625817
217.371	1.41686554
217.584	1.44755139
217.798	1.01028873
218.011	0.05084315
218.225	-1.05047749
218.439	-2.30062401
218.652	-2.08641508
218.866	-1.65084179
219.079	-1.89030005
219.293	-1.61985539
219.506	-1.1664008
219.719	-1.2654533
219.933	-1.2691616
220.146	-1.6189953
220.36	-1.55460017
220.573	-0.36388721
220.787	0.30811602
221	0.4357857
221.214	0.44425386
221.427	-0.97471614
221.64	-0.69921513
221.854	-1.37200478
222.067	-1.16664039
222.28	-1.18348337
222.494	-1.3001912
222.707	0.09501598
222.92	0.65560862
223.134	0.07287642
223.347	-0.04920091
223.56	1.10134384
223.774	1.09961949
223.987	1.82536348
224.2	1.76994111
224.414	1.7003529
224.627	2.30392239
224.84	2.36698327
225.053	2.18770764
225.267	1.85418811
225.48	1.2169197
225.693	0.58069319
225.906	2.28324743
226.119	2.34383945
226.333	2.91863983
226.546	2.30415503
226.759	2.28872082
226.972	2.9936108
227.185	1.89477861
227.398	2.41262497
227.612	1.84532067
227.825	1.14783132
228.038	-0.37061882
228.251	-0.49362333
228.464	-0.84515186
228.677	-1.0159751
228.89	0.7086839
229.103	-0.21236432
229.316	-0.36623268
229.529	-0.41460907
229.743	-0.83739111
229.956	-0.39133002
230.169	-0.20940804
230.382	-1.16124185
230.595	-1.93371576
230.808	-2.67143991
231.021	-3.21387989
231.234	-1.85996542
231.447	-1.8471252
231.66	-1.70424403
231.872	-2.09995036
232.085	-1.37589884
232.298	-1.08306788
232.511	-0.95657852
232.724	-1.25681726
232.937	-2.30221918
233.15	-2.88472514
233.363	-4.91681029
233.576	-5.11701706
233.789	-5.49510789
234.002	-6.14527934
234.214	-5.70487284
234.427	-5.19545606
234.64	-5.11702234
234.853	-4.56048246
235.066	-4.45421685
235.279	-4.11068913
235.491	-2.94205199
235.704	-4.47188667
235.917	-4.71188273
236.13	-4.67525433
236.342	-5.09783903
236.555	-5.7349142
236.768	-6.17853253
236.981	-5.96598639
237.193	-6.34091375
237.406	-5.83038869
237.619	-4.06813627
237.832	-3.71373819
238.044	-3.3780214
238.257	-3.14139559
238.47	-2.93839481
238.682	-2.54474633
238.895	-3.52334621
239.108	-2.08988083
239.32	-3.15470977
239.533	-1.97826736
239.746	-2.88666583
239.958	-3.64090245
240.171	-3.20121
240.383	-3.55212475
240.596	-3.86256072
240.808	-3.39174587
241.021	-3.65523116
241.234	-3.0578949
241.446	-3.28429854
241.659	-3.07192461
241.871	-2.90117582
242.084	-4.48452884
242.296	-4.60469566
242.509	-5.00173343
242.721	-4.9410691
242.934	-4.09434523
243.146	-4.70645932
243.359	-3.85895192
243.571	-5.01566902
243.784	-4.08494393
243.996	-4.60602178
244.208	-3.78798813
244.421	-4.12775465
244.633	-3.68498029
244.846	-3.66360036
245.058	-2.77733363
245.27	-2.49159108
245.483	-2.1472002
245.695	-2.38956588
245.907	-2.24530247
246.12	-0.52657302
246.332	-0.94676417
246.544	0.18577495
246.757	0.37741146
246.969	1.24917312
247.181	1.59963085
247.394	0.61392493
247.606	0.67374848
247.818	-0.07882657
248.03	-0.09352204
248.243	-0.54166473
248.455	-0.90608661
248.667	-0.32089357
248.879	0.69081433
249.092	-0.50032937
249.304	-0.06371307
249.516	-1.17473847
249.728	-1.30546286
249.94	-1.40448574
250.153	-1.52286614
250.365	-1.67696109
250.577	-1.60520808
250.789	-0.86002281
251.001	-1.38800675
251.213	-1.35390573
251.425	-1.08146414
251.637	-1.80072772
251.85	-1.26816055
252.062	-1.14570055
252.274	-0.16634618
252.486	0.1442607
252.698	-0.18905897
252.91	-0.80109059
253.122	-1.07131925
253.334	-1.17844861
253.546	-0.2922604
253.758	-0.55410096
253.97	-0.10135851
254.182	0.08006042
254.394	-0.55011669
254.606	-0.86840247
254.818	-0.76449833
255.03	-2.32431203
255.242	-2.3779323
255.454	-2.51401728
255.666	-2.61525895
255.877	-2.82011153
256.089	-2.94282469
256.301	-2.96583733
256.513	-3.2731857
256.725	-3.42115253
256.937	-3.81814304
257.149	-3.35961812
257.361	-2.16588837
257.572	-2.30256842
257.784	-1.63335641
257.996	-1.71338648
258.208	-2.16922287
258.42	-2.07749938
258.631	-2.42531534
258.843	-0.73213062
259.055	-0.47461401
259.267	-0.58972076
259.479	0.07582275
259.69	-0.21055668
259.902	0.04340089
260.114	-0.05209162
260.325	-0.65236844
260.537	-0.62315608
260.749	-1.15344535
260.961	-1.25297225
261.172	-1.82155338
261.384	-1.98568033
261.596	-1.971871
261.807	-1.89949062
262.019	-2.20650353
262.23	-3.03443524
262.442	-3.34356092
262.654	-3.32949475
262.865	-3.23383085
263.077	-3.05291043
263.288	-3.36577627
263.5	-3.07703363
263.712	-3.17446575
263.923	-3.80370231
264.135	-3.98618277
264.346	-4.46773542
264.558	-5.13029316
264.769	-5.63717217
264.981	-5.33588187
265.192	-5.87371081
265.404	-6.02880085
265.615	-5.75472113
265.827	-5.78750402
266.038	-5.4723679
266.25	-5.49031681
266.461	-5.7559108
266.673	-5.02789249
266.884	-4.98000464
267.095	-4.43678687
267.307	-4.3182013
267.518	-4.9031063
267.73	-5.16193182
267.941	-5.27657548
268.152	-4.72722218
268.364	-4.6344999
268.575	-3.93032358
268.786	-2.92695657
268.998	-2.21001966
269.209	-1.68861327
269.42	-1.67073121
269.632	-0.95159399
269.843	0.04103134
270.054	0.35959893
270.265	0.15360781
270.477	0.38260642
270.688	-0.02996821
270.899	0.94595812
271.11	0.39580878
271.322	0.62387568
271.533	0.80108846
271.744	0.59196402
271.955	1.20800927
272.166	1.38529902
272.378	0.91674703
272.589	0.87711459
272.8	0.50791145
273.011	-0.0789266
273.222	-0.55436563
273.433	-0.69799201
273.644	-0.6312414
273.856	-0.61097241
274.067	-1.28419241
274.278	-1.62478172
274.489	-1.73351763
274.7	-1.50956267
274.911	-2.05473375
275.122	-2.1100663
275.333	-2.64064294
275.544	-3.16237895
275.755	-3.14391671
275.966	-3.20677369
276.177	-3.99061332
276.388	-4.40584568
276.599	-4.31803817
276.81	-3.42670588
277.021	-3.003272
277.232	-2.69744986
277.443	-2.7295316
277.654	-2.09144029
277.865	-2.14304157
278.076	-2.74473137
278.287	-2.27939822
278.497	-1.33443323
278.708	-1.13812664
278.919	-1.10200145
279.13	-1.41592071
279.341	-0.969924
279.552	0.21104551
279.763	0.40564374
279.973	0.79048602
280.184	1.18253663
280.395	1.17694947
280.606	1.87630784
280.817	1.65171265
281.027	1.47933117
281.238	0.8148494
281.449	0.10267539
281.66	0.30837261
281.87	0.58660546
282.081	-0.2947756
282.292	0.37716263
282.503	0.83222523
282.713	0.93289299
282.924	1.02223532
283.135	1.08095935
283.345	1.2346094
283.556	1.17266026
283.767	1.03467034
283.977	0.28921023
284.188	0.11641702
284.399	0.02418167
284.609	-0.96757466
284.82	-0.9978009
285.03	-0.93940052
285.241	-0.18794166
285.451	-0.94544211
285.662	-0.41716202
285.873	0.00422244
286.083	0.57765291
286.294	0.67889583
286.504	0.9656011
286.715	0.39218916
286.925	1.41173607
287.136	1.05354952
287.346	0.78190761
287.557	0.59265829
287.767	0.07769302
287.978	0.43699927
288.188	0.74038099
288.399	0.86159684
288.609	1.75521093
288.819	1.6904465
289.03	1.89790207
289.24	2.13132201
289.451	2.04368502
289.661	2.05807877
289.871	2.78144522
290.082	2.8980853
290.292	2.90212055
290.502	2.77966272
290.713	2.72373222
290.923	2.56414375
291.133	3.09006563
291.344	2.72973201
291.554	2.46794728
291.764	2.78662823
291.974	2.85722295
292.185	3.12887048
292.395	2.99812658
292.605	2.99727175
292.815	3.04064384
293.026	2.58877705
293.236	2.88370885
293.446	3.21273642
293.656	2.97591909
293.866	2.9009716
294.077	2.78150895
294.287	2.58462175
294.497	2.44612249
294.707	2.35787957
294.917	2.29846769
295.127	2.44188488
295.337	2.61357993
295.548	2.45090735
295.758	2.39004743
295.968	2.59664256
296.178	2.46220878
296.388	2.66068223
296.598	2.70627366
296.808	2.8240937
297.018	2.76184077
297.228	2.91891738
297.438	2.95786372
297.648	3.04712456
297.858	3.16856152
298.068	3.17627758
298.278	3.22129109
298.488	3.29585492
298.698	3.43400519
298.908	3.47995191
299.118	3.50639106
299.328	3.56484176
299.538	3.57990819
299.748	3.57280834
299.957	3.59623206
300.167	3.61673811
300.377	3.56832418
300.587	3.60520538
300.797	3.54419691
301.007	3.55693821
301.217	3.59872916
301.426	3.62939791
301.636	3.58070413
301.846	3.55222757
302.056	3.53931956
302.266	3.52696732
302.475	3.5597781
302.685	3.56773664
302.895	3.58075472
303.105	3.55689343
303.314	3.5716223
303.524	3.56029408
303.734	3.55842154
303.944	3.537587
304.153	3.53177721
304.363	3.5261351
304.573	3.52421785
304.782	3.54981849
304.992	3.56224753
305.202	3.56850727
305.411	3.56694252
305.621	3.55451643
305.831	3.55912986
306.04	3.56395846
306.25	3.58541023
306.459	3.57903731
306.669	3.59815402
306.878	3.60923195
307.088	3.61589336
307.298	3.61064928
307.507	3.60923275
307.717	3.60557656
307.926	3.61229743
308.136	3.61279858
308.345	3.62125704
308.555	3.63131894
308.764	3.63772779
308.974	3.6393626
309.183	3.63979427
309.392	3.63793492
309.602	3.64333799
309.811	3.65796074
310.021	3.64857668
310.23	3.65479175
310.44	3.66376505
310.649	3.66511145
310.858	3.67318469
311.068	3.6579889
311.277	3.65756494
311.486	3.66562871
311.696	3.67129481
311.905	3.68087147
312.114	3.68789405
312.324	3.69670272
312.533	3.7005839
312.742	3.70442822
312.952	3.70935779
313.161	3.71760316
313.37	3.72322779
313.579	3.73069261
313.789	3.72852528
313.998	3.73281785
314.207	3.73674097
314.416	3.7505513
314.625	3.74983808
314.835	3.75116992
315.044	3.7585166
315.253	3.76666887
315.462	3.76470628
315.671	3.77298044
315.88	3.77440813
316.09	3.77301443
316.299	3.77465806
316.508	3.77188141
316.717	3.77428941
316.926	3.78276623
317.135	3.78129726
317.344	3.78595211
317.553	3.79063787
317.762	3.79597555
317.971	3.79662075
318.18	3.80938052
318.389	3.81530631
318.598	3.80905988
318.807	3.81890659
319.016	3.81947519
319.225	3.82315905
319.434	3.81971999
319.643	3.81469016
319.852	3.82498685
320.061	3.82490619
320.27	3.82402734
320.479	3.82787603
320.688	3.82802415
320.897	3.83580906
321.105	3.83815568
321.314	3.83720377
321.523	3.84771254
321.732	3.84748317
321.941	3.85434084
322.15	3.8586092
322.359	3.86284367
322.567	3.86448187
322.776	3.86618926
322.985	3.87354678
323.194	3.87247905
323.403	3.87925593
323.611	3.88123619
323.82	3.88964192
324.029	3.89477076
324.237	3.89729068
324.446	3.89819665
324.655	3.90793812
324.864	3.91000664
325.072	3.91386817
325.281	3.91258942
325.49	3.918984
325.698	3.9204509
325.907	3.92455719
326.116	3.92872654
326.324	3.92661286
326.533	3.92925136
326.741	3.93348183
326.95	3.93625988
327.159	3.94165482
327.367	3.94615032
327.576	3.94807481
327.784	3.94672212
327.993	3.94853958
328.201	3.95071176
328.41	3.95469324
328.618	3.96015074
328.827	3.97103825
329.035	3.97276857
329.244	3.97992099
329.452	3.98600598
329.661	3.99873972
329.869	4.0006324
330.078	4.00585556
330.286	4.01034712
330.495	4.01837302
330.703	4.0248549
330.911	4.02890154
331.12	4.03216579
331.328	4.0388971
331.537	4.04169523
331.745	4.04655888
331.953	4.05412998
332.162	4.06366891
332.37	4.07348864
332.578	4.07887824
332.787	4.08582182
332.995	4.09426753
333.203	4.09526706
333.411	4.09657656
333.62	4.10098995
333.828	4.10841864
334.036	4.1080807
334.244	4.1111616
334.453	4.11720167
334.661	4.11996453
334.869	4.12088201
335.077	4.1267002
335.285	4.1315716
335.494	4.13663541
335.702	4.14455083
335.91	4.1496646
336.118	4.15175435
336.326	4.15710481
336.534	4.16343161
336.742	4.16445927
336.951	4.16898554
337.159	4.17057252
337.367	4.17345205
337.575	4.17942177
337.783	4.18424936
337.991	4.18940346
338.199	4.19172467
338.407	4.19891873
338.615	4.20772844
338.823	4.21199342
339.031	4.21181378
339.239	4.21997432
339.447	4.22793828
339.655	4.23061189
339.863	4.2370079
340.071	4.23535182
340.279	4.24160393
340.487	4.24901384
340.695	4.25010782
340.903	4.2520345
341.11	4.25706905
341.318	4.25977624
341.526	4.26480769
341.734	4.26705776
341.942	4.27046535
342.15	4.27910543
342.358	4.28376129
342.565	4.29209327
342.773	4.2942018
342.981	4.29737196
343.189	4.30422867
343.397	4.31366235
343.604	4.31896464
343.812	4.32117803
344.02	4.3277685
344.228	4.33088382
344.435	4.33707895
344.643	4.33859216
344.851	4.3428785
345.058	4.35106271
345.266	4.35799583
345.474	4.36572035
345.681	4.37240874
345.889	4.37613511
346.097	4.38117744
346.304	4.38281515
346.512	4.38820812
346.72	4.39579871
346.927	4.39715998
347.135	4.40154888
347.342	4.404051
347.55	4.4079367
347.758	4.4151104
347.965	4.41799792
348.173	4.42098775
348.38	4.43082654
348.588	4.43792777
348.795	4.44402125
349.003	4.45064684
349.21	4.45345543
349.418	4.45765761
349.625	4.45624749
349.833	4.45890372
350.04	4.46433892
350.247	4.47364552
350.455	4.48044794
350.662	4.48909793
350.87	4.49511116
351.077	4.49937392
351.284	4.50417333
351.492	4.51232663
351.699	4.51991638
351.906	4.52523029
352.114	4.52601065
352.321	4.53247146
352.528	4.53316308
352.736	4.53477432
352.943	4.54133585
353.15	4.54429326
353.358	4.5491479
353.565	4.55473614
353.772	4.55957118
353.979	4.57195927
354.187	4.57901016
354.394	4.58247601
354.601	4.58743621
354.808	4.58945276
355.015	4.59408161
355.223	4.59605954
355.43	4.59764705
355.637	4.6066513
355.844	4.61139284
356.051	4.61786404
356.258	4.62455301
356.465	4.63476946
356.673	4.64023198
356.88	4.65221382
357.087	4.65709188
357.294	4.66039788
357.501	4.66420136
357.708	4.67307764
357.915	4.68119234
358.122	4.68916203
358.329	4.6922741
358.536	4.69844371
358.743	4.70259042
358.95	4.70626734
359.157	4.71176345
359.364	4.71719259
359.571	4.72248604
359.778	4.73004394
359.985	4.73094114
360.192	4.73912795
360.399	4.74478095
360.606	4.75098619
360.812	4.75453194
361.019	4.75780734
361.226	4.76082028
361.433	4.76522915
361.64	4.76977616
361.847	4.77600602
362.054	4.77658363
362.26	4.7812525
362.467	4.78356931
362.674	4.78880971
362.881	4.79155976
363.088	4.7976947
363.294	4.80215785
363.501	4.80732313
363.708	4.81148577
363.915	4.8181644
364.121	4.82299615
364.328	4.82843973
364.535	4.82949687
364.741	4.83341966
364.948	4.83621953
365.155	4.84074981
365.361	4.84401275
365.568	4.85132158
365.775	4.86038468
365.981	4.86616092
366.188	4.87064616
366.395	4.87881823
366.601	4.88387201
366.808	4.88794695
367.014	4.89503428
367.221	4.90223838
367.427	4.91009659
367.634	4.91780438
367.84	4.92576458
368.047	4.9344379
368.254	4.94522516
368.46	4.95067328
368.667	4.95624841
368.873	4.96686974
369.079	4.97501752
369.286	4.98238378
369.492	4.99176085
369.699	5.00239292
369.905	5.00928259
370.112	5.01545529
370.318	5.02386002
370.524	5.03664341
370.731	5.04469247
370.937	5.05483691
371.144	5.06687931
371.35	5.07514866
371.556	5.08579529
371.763	5.09394125
371.969	5.1035406
372.175	5.1129872
372.381	5.11723156
372.588	5.12130503
372.794	5.12957374
373	5.14131927
373.206	5.14734707
373.413	5.15646942
373.619	5.16396496
373.825	5.17003431
374.031	5.17543093
374.238	5.18182082
374.444	5.1874117
374.65	5.19659576
374.856	5.2016046
375.062	5.21229998
375.268	5.21784154
375.475	5.22554023
375.681	5.23282297
375.887	5.23727162
376.093	5.24866361
376.299	5.25244051
376.505	5.26050239
376.711	5.27429746
376.917	5.28350619
377.123	5.29203343
377.329	5.30537222
377.535	5.31515754
377.741	5.32641638
377.947	5.33643125
378.153	5.34459254
378.359	5.35903565
378.565	5.37098977
378.771	5.38466305
378.977	5.39386652
379.183	5.40412496
379.389	5.41189887
379.595	5.42271682
379.801	5.43436068
380.007	5.4450716
380.213	5.45695688
380.418	5.4624409
380.624	5.48113684
380.83	5.48997061
381.036	5.50158346
381.242	5.50891155
381.448	5.52233072
381.653	5.52315567
381.859	5.53532055
382.065	5.54195433
382.271	5.55195336
382.476	5.56491794
382.682	5.5745023
382.888	5.58596103
383.094	5.59335143
383.299	5.60160621
383.505	5.61232313
383.711	5.62302675
383.916	5.63123539
384.122	5.64038761
384.328	5.64741615
384.533	5.65727066
384.739	5.66651274
384.945	5.6735967
385.15	5.68273458
385.356	5.68701066
385.562	5.69966494
385.767	5.70810358
385.973	5.72305319
386.178	5.73000125
386.384	5.73434562
386.589	5.74590644
386.795	5.75511135
387	5.76391924
387.206	5.77152278
387.411	5.78179273
387.617	5.79399939
387.822	5.80118169
388.028	5.80887199
388.233	5.81885362
388.439	5.82775189
388.644	5.83760435
388.85	5.8478109
389.055	5.8627457
389.26	5.87235854
389.466	5.8861449
389.671	5.90011425
389.877	5.91004567
390.082	5.92097821
390.287	5.93318216
390.493	5.94725982
390.698	5.96286663
390.903	5.97303008
391.109	5.98426507
391.314	5.99545905
391.519	6.00556856
391.724	6.01954154
391.93	6.0277352
392.135	6.03805138
392.34	6.04966528
392.545	6.06243959
392.751	6.073213
392.956	6.08559735
393.161	6.09163633
393.366	6.09930502
393.571	6.1097085
393.776	6.11900569
393.982	6.12967958
394.187	6.13773088
394.392	6.14735595
394.597	6.15467476
394.802	6.16335647
395.007	6.17416997
395.212	6.18319603
395.417	6.1938908
395.622	6.20178257
395.827	6.21241334
396.032	6.22156754
396.237	6.23148272
396.442	6.24279415
396.647	6.25125143
396.852	6.2596622
397.057	6.26850017
397.262	6.27699555
397.467	6.28934078
397.672	6.29841962
397.877	6.30480837
398.082	6.31110303
398.287	6.3174293
398.492	6.32739047
398.697	6.33535344
398.902	6.34311355
399.107	6.3468004
399.311	6.35551967
399.516	6.36418257
399.721	6.37040016
399.926	6.37953108
400.131	6.38776151
400.336	6.39287176
400.54	6.40070094
400.745	6.40786863
400.95	6.41546078
401.155	6.42584826
401.359	6.43219556
401.564	6.44090654
401.769	6.44913941
401.974	6.45783368
402.178	6.46939474
402.383	6.48042613
402.588	6.48894304
402.792	6.49851748
402.997	6.50916686
403.202	6.5179405
403.406	6.5312973
403.611	6.53990889
403.815	6.54968539
404.02	6.5592585
404.225	6.56886106
404.429	6.57608852
404.634	6.5869196
404.838	6.59609174
405.043	6.60689116
405.247	6.61708386
405.452	6.62528392
405.656	6.63732871
405.861	6.64737678
406.065	6.65683441
406.27	6.66676066
406.474	6.67577303
406.679	6.68669782
406.883	6.69594828
407.088	6.70494757
407.292	6.71379201
407.497	6.72451845
407.701	6.72893248
407.905	6.73889205
408.11	6.74766182
408.314	6.75911382
408.518	6.76851667
408.723	6.77961901
408.927	6.78961964
409.131	6.79887373
409.336	6.80702392
409.54	6.817772
409.744	6.82481149
409.949	6.83292894
410.153	6.84249887
410.357	6.85229714
410.561	6.8614671
410.766	6.8704595
410.97	6.87874391
411.174	6.88940718
411.378	6.90080026
411.582	6.90971544
411.787	6.92159102
411.991	6.93843835
412.195	6.94689015
412.399	6.95810729
412.603	6.96801898
412.807	6.97698053
413.011	6.98621773
413.215	6.99373953
413.419	7.00435601
413.624	7.01517718
413.828	7.02644849
414.032	7.03898556
414.236	7.0535301
414.44	7.0629014
414.644	7.07392222
414.848	7.08296777
415.052	7.09253412
415.256	7.10259211
415.46	7.11484441
415.664	7.12500307
415.868	7.13744222
416.072	7.14706543
416.275	7.15510525
416.479	7.16730969
416.683	7.17656549
416.887	7.18629394
417.091	7.19914631
417.295	7.2105464
417.499	7.22259521
417.703	7.23604264
417.906	7.24819015
418.11	7.26007216
418.314	7.27380023
418.518	7.28298466
418.722	7.29603298
418.925	7.30776278
419.129	7.32138168
419.333	7.33472165
419.537	7.34773959
419.74	7.36025195
419.944	7.37240977
420.148	7.38403611
420.352	7.39590974
420.555	7.40987571
420.759	7.42241437
420.963	7.43754803
421.166	7.44882544
421.37	7.46256485
421.573	7.47891979
421.777	7.49260462
421.981	7.50428756
422.184	7.51693859
422.388	7.52755195
422.591	7.53860166
422.795	7.55031194
422.999	7.56253123
423.202	7.57422816
423.406	7.5875519
423.609	7.60139247
423.813	7.61547363
424.016	7.62864521
424.22	7.64338067
424.423	7.65663765
424.627	7.66895626
424.83	7.68042141
425.033	7.69114083
425.237	7.70291006
425.44	7.71852612
425.644	7.73152119
425.847	7.74239724
426.05	7.75653581
426.254	7.77121988
426.457	7.7850653
426.66	7.80257696
426.864	7.81922911
427.067	7.8349583
427.27	7.8501782
427.474	7.86654778
427.677	7.8818364
427.88	7.89589462
428.084	7.9101439
428.287	7.92159891
428.49	7.93243295
428.693	7.94924155
428.896	7.96307215
429.1	7.97798623
429.303	7.99294991
429.506	8.00851724
429.709	8.02327626
429.912	8.03773086
430.116	8.05525158
430.319	8.06863356
430.522	8.08147811
430.725	8.09871831
430.928	8.11234647
431.131	8.12704237
431.334	8.14184319
431.537	8.15723284
431.74	8.17300203
431.943	8.18826438
432.146	8.20402994
432.349	8.21758871
432.552	8.23455111
432.755	8.25228225
432.958	8.26223492
433.161	8.2798195
433.364	8.29457426
433.567	8.31081201
433.77	8.32666326
433.973	8.34159298
434.176	8.35695488
434.379	8.36998521
434.582	8.38637986
434.785	8.40280454
434.988	8.41496374
435.19	8.42632469
435.393	8.43931666
435.596	8.45452632
435.799	8.46923375
436.002	8.48223829
436.205	8.49686469
436.407	8.51038602
436.61	8.5261009
436.813	8.53943306
437.016	8.55021801
437.218	8.56701299
437.421	8.57835277
437.624	8.59179125
437.827	8.60621533
438.029	8.61785312
438.232	8.63146006
438.435	8.64393405
438.637	8.65766506
438.84	8.67042597
439.043	8.68367676
439.245	8.69890825
439.448	8.71421899
439.65	8.72525437
439.853	8.73654184
440.056	8.74833989
440.258	8.76137128
440.461	8.77095582
440.663	8.78346303
440.866	8.79525654
441.068	8.81044936
441.271	8.82676544
441.473	8.83801659
441.676	8.85355893
441.878	8.86627966
442.081	8.87991166
442.283	8.89143756
442.486	8.90525342
442.688	8.91700961
442.89	8.92877708
443.093	8.94170992
443.295	8.9523447
443.498	8.96210647
443.7	8.97492534
443.902	8.98932737
444.105	9.00193576
444.307	9.01350431
444.509	9.02608851
444.712	9.03956589
444.914	9.05190548
445.116	9.0652312
445.319	9.07737164
445.521	9.08805267
445.723	9.10150447
445.925	9.11550904
446.128	9.12832081
446.33	9.14232784
446.532	9.15637959
446.734	9.16724983
446.936	9.18170222
447.139	9.195543
447.341	9.20805006
447.543	9.22207543
447.745	9.2356311
447.947	9.24596707
448.149	9.25772181
448.351	9.26964374
448.553	9.28272587
448.755	9.29323976
448.958	9.30505921
449.16	9.31498517
449.362	9.32651942
449.564	9.3359689
449.766	9.34699419
449.968	9.35614501
450.17	9.36673712
450.372	9.37818957
450.574	9.38847756
450.776	9.39972275
450.978	9.41062909
451.179	9.41986668
451.381	9.43179258
451.583	9.44239063
451.785	9.45379644
451.987	9.46535368
452.189	9.47814207
452.391	9.48918703
452.593	9.49923372
452.795	9.5100463
452.996	9.5185573
453.198	9.53115035
453.4	9.5413115
453.602	9.55308409
453.804	9.56323558
454.005	9.57330854
454.207	9.58510476
454.409	9.5945268
454.611	9.60510085
454.812	9.61327976
455.014	9.62223836
455.216	9.63020447
455.417	9.63969983
455.619	9.6482495
455.821	9.65850885
456.022	9.66894205
456.224	9.67898777
456.426	9.6887933
456.627	9.69772441
456.829	9.7088704
457.031	9.71811283
457.232	9.73058452
457.434	9.73947466
457.635	9.74957155
457.837	9.75880124
458.038	9.76892029
458.24	9.77781604
458.441	9.78653178
458.643	9.79382649
458.844	9.80084622
459.046	9.81019132
459.247	9.82064723
459.449	9.83142176
459.65	9.8427586
459.852	9.85054698
460.053	9.85946415
460.254	9.86893679
460.456	9.87902559
460.657	9.88769296
460.859	9.89435401
461.06	9.90245969
461.261	9.90997652
461.463	9.91850151
461.664	9.92540776
461.865	9.93412004
462.066	9.94196115
462.268	9.9524358
462.469	9.96114958
462.67	9.97149373
462.872	9.98028041
463.073	9.98803769
463.274	9.99710341
463.475	10.00509805
463.676	10.01469035
463.878	10.0218634
464.079	10.02985906
464.28	10.03585048
464.481	10.04306637
464.682	10.04818539
464.883	10.05713839
465.085	10.06950856
465.286	10.07819497
465.487	10.08958851
465.688	10.09793965
465.889	10.10578364
466.09	10.11644957
466.291	10.12325347
466.492	10.13159615
466.693	10.14139231
466.894	10.15160661
467.095	10.16169029
467.296	10.17378186
467.497	10.18342973
467.698	10.19267415
467.899	10.20333643
468.1	10.2123295
468.301	10.22155541
468.502	10.23141348
468.703	10.23960359
468.903	10.25175552
469.104	10.26116035
469.305	10.27036184
469.506	10.28155507
469.707	10.28969515
469.908	10.30070486
470.109	10.31217116
470.309	10.32183372
470.51	10.33368121
470.711	10.34250078
470.912	10.35423951
471.112	10.3628084
471.313	10.37338815
471.514	10.38103799
471.715	10.39001635
471.915	10.40023547
472.116	10.40678164
472.317	10.41699338
472.517	10.42790256
472.718	10.43947203
472.919	10.45191704
473.119	10.46080299
473.32	10.47070594
473.521	10.47981075
473.721	10.48926931
473.922	10.50106452
474.122	10.51115927
474.323	10.52320861
474.523	10.5355263
474.724	10.54467102
474.925	10.55611233
475.125	10.56571459
475.326	10.57768891
475.526	10.58778744
475.727	10.59846766
475.927	10.61056984
476.127	10.62184474
476.328	10.63340903
476.528	10.64435428
476.729	10.65476446
476.929	10.66513907
477.13	10.67421229
477.33	10.68560729
477.53	10.69570761
477.731	10.7062679
477.931	10.71802535
478.131	10.72645071
478.332	10.7376885
478.532	10.7466933
478.732	10.75758686
478.933	10.76860524
479.133	10.78008729
479.333	10.79078143
479.533	10.80150432
479.734	10.81158138
479.934	10.82423994
480.134	10.83479526
480.334	10.84705918
480.534	10.85977801
480.735	10.87186224
480.935	10.88686721
481.135	10.89891848
481.335	10.91188169
481.535	10.92496188
481.735	10.93778126
481.935	10.95205895
482.136	10.96388263
482.336	10.97791007
482.536	10.99145565
482.736	11.00707919
482.936	11.01909249
483.136	11.03250464
483.336	11.04604148
483.536	11.06042688
483.736	11.07355949
483.936	11.0894678
484.136	11.10487117
484.336	11.11858984
484.536	11.13298284
484.736	11.14715994
484.936	11.15916297
485.135	11.17071527
485.335	11.18515018
485.535	11.20016485
485.735	11.21251394
485.935	11.22775847
486.135	11.24057062
486.335	11.25436913
486.534	11.26933092
486.734	11.28197815
486.934	11.29519027
487.134	11.30755586
487.334	11.32296078
487.533	11.33841389
487.733	11.35220793
487.933	11.36811124
488.133	11.38289389
488.332	11.39405854
488.532	11.40869014
488.732	11.42230053
488.931	11.43544289
489.131	11.45171353
489.331	11.46457649
489.53	11.47896222
489.73	11.49374295
489.93	11.50948629
490.129	11.52203435
490.329	11.53595824
490.528	11.54929584
490.728	11.56393308
490.928	11.57880038
491.127	11.59215734
491.327	11.6075934
491.526	11.62033517
491.726	11.63243101
491.925	11.64524381
492.125	11.65965242
492.324	11.67268623
492.524	11.68876923
492.723	11.70371856
492.922	11.71556922
493.122	11.7300163
493.321	11.74371232
493.521	11.75984319
493.72	11.77419247
493.919	11.78743702
494.119	11.80102922
494.318	11.81812737
494.517	11.83390436
494.717	11.85152149
494.916	11.86594451
495.115	11.8802551
495.315	11.89774842
495.514	11.91378924
495.713	11.93039876
495.912	11.94646146
496.112	11.9634678
496.311	11.97862642
496.51	11.99452486
496.709	12.01025914
496.908	12.02418046
497.108	12.04094313
497.307	12.058248
497.506	12.0745547
497.705	12.09152176
497.904	12.10753077
498.103	12.1235351
498.302	12.13995852
498.501	12.15464901
498.701	12.1685296
498.9	12.18237558
499.099	12.19908237
499.298	12.21725319
499.497	12.23268544
499.696	12.2467972
499.895	12.26203838
500.094	12.27858959
500.293	12.29493032
500.492	12.31013107
500.691	12.32483508
500.89	12.34111681
501.088	12.36015174
501.287	12.37777116
501.486	12.39459958
501.685	12.41243469
501.884	12.42891581
502.083	12.44754527
502.282	12.46413455
502.481	12.4817826
502.679	12.49852249
502.878	12.51657073
503.077	12.53324198
503.276	12.5497708
503.475	12.56609599
503.673	12.5800549
503.872	12.59716477
504.071	12.61583249
504.27	12.6330487
504.468	12.64971896
504.667	12.66595785
504.866	12.68494794
505.064	12.70290603
505.263	12.71985849
505.462	12.7357447
505.66	12.75328092
505.859	12.76862333
506.058	12.78460708
506.256	12.79960754
506.455	12.81770212
506.653	12.83413246
506.852	12.84960777
507.05	12.86625994
507.249	12.88434847
507.448	12.9011727
507.646	12.9186218
507.845	12.936203
508.043	12.95411033
508.242	12.96789288
508.44	12.98330175
508.638	12.99919188
508.837	13.01645994
509.035	13.03147364
509.234	13.04486293
509.432	13.06159547
509.631	13.07935735
509.829	13.09383045
510.027	13.11135604
510.226	13.12774114
510.424	13.14524037
510.622	13.160242
510.821	13.17726861
511.019	13.19541815
511.217	13.21167577
511.415	13.22765836
511.614	13.24495853
511.812	13.26032275
512.01	13.27921668
512.208	13.29687343
512.407	13.3171958
512.605	13.33549762
512.803	13.35507921
513.001	13.37128801
513.199	13.38969163
513.398	13.40948772
513.596	13.42676633
513.794	13.44476041
513.992	13.46362896
514.19	13.48257886
514.388	13.50177156
514.586	13.52280087
514.784	13.54276951
514.982	13.56116904
515.18	13.58059101
515.378	13.60164463
515.576	13.62120095
515.774	13.63941222
515.972	13.66049899
516.17	13.67926378
516.368	13.69948788
516.566	13.71852663
516.764	13.73752357
516.962	13.75690368
517.16	13.78029451
517.358	13.79990719
517.556	13.81853707
517.754	13.83664345
517.952	13.85666381
518.149	13.87491456
518.347	13.89442037
518.545	13.91334306
518.743	13.92862149
518.941	13.94988591
519.138	13.97131557
519.336	13.99082483
519.534	14.01169988
519.732	14.0329833
519.929	14.05391419
520.127	14.07406663
520.325	14.09426591
520.523	14.1129582
520.72	14.13324354
520.918	14.15471119
521.116	14.17491859
521.313	14.19283867
521.511	14.2150898
521.709	14.23623739
521.906	14.25837272
522.104	14.2758039
522.301	14.29739232
522.499	14.3178227
522.696	14.33855286
522.894	14.35908091
523.092	14.37735691
523.289	14.3953264
523.487	14.41519579
523.684	14.43195928
523.882	14.44955674
524.079	14.4679717
524.276	14.48500294
524.474	14.50448853
524.671	14.52556126
524.869	14.54654336
525.066	14.56431732
525.264	14.58274962
525.461	14.60095868
525.658	14.61744626
525.856	14.63731542
526.053	14.65647249
526.25	14.67833385
526.448	14.69815824
526.645	14.71726867
526.842	14.73756107
527.039	14.75713521
527.237	14.77635789
527.434	14.79603688
527.631	14.81648515
527.828	14.83976012
528.026	14.8587962
528.223	14.87866594
528.42	14.89985388
528.617	14.9196953
528.814	14.93797427
529.012	14.95458277
529.209	14.97457456
529.406	14.99390679
529.603	15.015664
529.8	15.03754463
529.997	15.05669839
530.194	15.07596888
530.391	15.09518239
530.588	15.11542817
530.785	15.13472623
530.982	15.15346451
531.179	15.17259293
531.376	15.19142664
531.573	15.21117688
531.77	15.22977217
531.967	15.24782589
532.164	15.26863156
532.361	15.28901616
532.558	15.30758957
532.755	15.32631905
532.952	15.34369237
533.149	15.36369733
533.346	15.38306165
533.543	15.40224644
533.739	15.41933347
533.936	15.435798
534.133	15.45458106
534.33	15.4720906
534.527	15.49225641
534.723	15.51028719
534.92	15.52771997
535.117	15.54676121
535.314	15.5682555
535.51	15.5876861
535.707	15.60568693
535.904	15.62643568
536.1	15.6468104
536.297	15.66654681
536.494	15.68542341
536.69	15.70567291
536.887	15.72690592
537.084	15.74859149
537.28	15.76975956
537.477	15.79005113
537.674	15.81118664
537.87	15.8315724
538.067	15.85198793
538.263	15.87142345
538.46	15.89263936
538.656	15.91187552
538.853	15.93203584
539.049	15.9533123
539.246	15.97202785
539.442	15.99198769
539.639	16.01153372
539.835	16.0329291
540.032	16.05338754
540.228	16.07012717
540.424	16.09005655
540.621	16.11034163
540.817	16.13073908
541.014	16.14898722
541.21	16.17011112
541.406	16.18848469
541.603	16.20815247
541.799	16.2270759
541.995	16.24777402
542.191	16.2684776
542.388	16.28631103
542.584	16.30868293
542.78	16.32929376
542.976	16.35055252
543.173	16.37212592
543.369	16.39064488
543.565	16.41181162
543.761	16.43113633
543.957	16.44972065
544.154	16.46778703
544.35	16.48959144
544.546	16.51088088
544.742	16.53072895
544.938	16.54973252
545.134	16.57197524
545.33	16.59125275
545.526	16.61043883
545.722	16.63033493
545.919	16.65117602
546.115	16.66798739
546.311	16.68666757
546.507	16.70937377
546.703	16.72821053
546.899	16.74627676
547.095	16.7656009
547.29	16.78685805
547.486	16.81084695
547.682	16.82751571
547.878	16.84899971
548.074	16.86801295
548.27	16.88698219
548.466	16.90601247
548.662	16.92412246
548.858	16.94237742
549.053	16.96417051
549.249	16.98114475
549.445	17.0012802
549.641	17.0213532
549.837	17.0416298
550.032	17.05908547
550.228	17.08284289
550.424	17.10345061
550.62	17.12474669
550.815	17.14066302
551.011	17.16017279
551.207	17.17916611
551.402	17.19384229
551.598	17.21206297
551.794	17.2317505
551.989	17.2492706
552.185	17.26966734
552.381	17.28896401
552.576	17.30775768
552.772	17.32484413
552.967	17.34492215
553.163	17.36124695
553.359	17.38124848
553.554	17.39908511
553.75	17.41790023
553.945	17.43645131
554.141	17.4552754
554.336	17.47092436
554.532	17.49027837
554.727	17.50618148
554.922	17.5274745
555.118	17.54647157
555.313	17.56545752
555.509	17.58493368
555.704	17.6028927
555.899	17.62234468
556.095	17.64183628
556.29	17.66027136
556.486	17.68009201
556.681	17.6972048
556.876	17.717675
557.071	17.73523856
557.267	17.75301183
557.462	17.77114379
557.657	17.78616973
557.853	17.80073416
558.048	17.81772889
558.243	17.83756994
558.438	17.85866563
558.633	17.8740124
558.829	17.89070886
559.024	17.90857474
559.219	17.92576789
559.414	17.94212869
559.609	17.96060906
559.804	17.97867585
559.999	17.99454611
560.194	18.01132795
560.39	18.02901967
560.585	18.04526572
560.78	18.06237576
560.975	18.07779302
561.17	18.09485373
561.365	18.11281346
561.56	18.1296868
561.755	18.15024012
561.95	18.17280251
562.145	18.19015029
562.34	18.20433594
562.535	18.21840142
562.729	18.23791414
562.924	18.25595204
563.119	18.27405722
563.314	18.29110068
563.509	18.30914228
563.704	18.32475664
563.899	18.34104464
564.093	18.35768353
564.288	18.37744358
564.483	18.39680443
564.678	18.41261166
564.873	18.43150086
565.067	18.45093646
565.262	18.47038085
565.457	18.486931
565.652	18.50172269
565.846	18.51485664
566.041	18.53033735
566.236	18.54605703
566.43	18.56693623
566.625	18.5873752
566.82	18.60292723
567.014	18.62228327
567.209	18.63656338
567.404	18.65665855
567.598	18.67349274
567.793	18.68998479
567.987	18.70647517
568.182	18.72284176
568.376	18.73767002
568.571	18.75181278
568.765	18.76986855
568.96	18.7867201
569.154	18.80276235
569.349	18.81949988
569.543	18.83417686
569.738	18.8542861
569.932	18.87502022
570.127	18.88945139
570.321	18.90766098
570.515	18.92383878
570.71	18.93818941
570.904	18.95507779
571.098	18.96872582
571.293	18.98644733
571.487	18.99918016
571.681	19.01217279
571.876	19.02913685
572.07	19.04700569
572.264	19.0632616
572.458	19.07795451
572.653	19.09376568
572.847	19.10909017
573.041	19.12413957
573.235	19.13764424
573.43	19.15077508
573.624	19.16827396
573.818	19.18236286
574.012	19.19563019
574.206	19.21251823
574.4	19.22796647
574.594	19.24221757
574.788	19.25701895
574.983	19.27254161
575.177	19.28748674
575.371	19.2998499
575.565	19.31465715
575.759	19.3343654
575.953	19.34972365
576.147	19.36596491
576.341	19.37780317
576.535	19.39464055
576.729	19.40706652
576.923	19.42196058
577.117	19.43752822
577.31	19.45489708
577.504	19.46826764
577.698	19.48173588
577.892	19.49444299
578.086	19.50959115
578.28	19.52205091
578.474	19.53259368
578.668	19.54185401
578.861	19.55836085
579.055	19.57271917
579.249	19.58621047
579.443	19.60049683
579.636	19.61333554
579.83	19.62481952
580.024	19.63723953
580.218	19.64657531
580.411	19.661531
580.605	19.6736277
580.799	19.68795536
580.992	19.70260015
581.186	19.71471429
581.38	19.72416818
581.573	19.73742464
581.767	19.75088623
581.961	19.76110874
582.154	19.7737402
582.348	19.78921164
582.541	19.80138583
582.735	19.81637504
582.928	19.82498486
583.122	19.836898
583.315	19.84814749
583.509	19.86080157
583.702	19.87347743
583.896	19.88232493
584.089	19.89619142
584.283	19.90727771
584.476	19.91898376
584.67	19.93038085
584.863	19.93937563
585.056	19.94707904
585.25	19.95716545
585.443	19.97122992
585.636	19.98162287
585.83	19.99306765
586.023	20.0068453
586.216	20.0184331
586.41	20.02874936
586.603	20.04291345
586.796	20.05621333
586.989	20.06817991
587.183	20.08152804
587.376	20.09649602
587.569	20.10877134
587.762	20.12266925
587.955	20.13722686
588.149	20.14648813
588.342	20.1580936
588.535	20.17354821
588.728	20.18643449
588.921	20.20173223
589.114	20.21841272
589.307	20.23443548
589.5	20.24363954
589.693	20.25886759
589.886	20.27076285
590.08	20.28294716
590.273	20.29743566
590.466	20.30952384
590.659	20.3204782
590.852	20.33239422
591.044	20.34554308
591.237	20.35633282
591.43	20.36696175
591.623	20.37893768
591.816	20.39171446
592.009	20.39983904
592.202	20.41235445
592.395	20.4256067
592.588	20.43196276
592.781	20.43997863
592.973	20.44918314
593.166	20.45908807
593.359	20.4702875
593.552	20.4826501
593.745	20.49272232
593.937	20.50292292
594.13	20.51115741
594.323	20.51782668
594.515	20.5285493
594.708	20.54036254
594.901	20.55096684
595.094	20.5596537
595.286	20.57027305
595.479	20.57956845
595.672	20.58991852
595.864	20.59897463
596.057	20.61461118
596.249	20.62405703
596.442	20.63162878
596.635	20.647161
596.827	20.6590174
597.02	20.66953183
597.212	20.67809012
597.405	20.68917629
597.597	20.697105
597.79	20.70563032
597.982	20.71809125
598.175	20.73189916
598.367	20.7423508
598.559	20.75054466
598.752	20.75830154
598.944	20.7665498
599.137	20.77527755
599.329	20.78348275
599.521	20.79326811
599.714	20.80216499
599.906	20.81093135
600.098	20.81682254
600.291	20.82868431
600.483	20.8399212
600.675	20.84655323
600.868	20.85558198
601.06	20.86466828
601.252	20.87320628
601.444	20.87805607
601.637	20.88971647
601.829	20.89950316
602.021	20.90720977
602.213	20.91440574
602.405	20.92273924
602.597	20.93296235
602.789	20.9464185
602.982	20.95706878
603.174	20.96680502
603.366	20.97421204
603.558	20.98379732
603.75	20.99330524
603.942	21.00259418
604.134	21.01119379
604.326	21.01953159
604.518	21.02978817
604.71	21.03862053
604.902	21.04817394
605.094	21.05691927
605.286	21.06481048
605.478	21.07404012
605.67	21.08193698
605.862	21.09153856
606.054	21.10238649
606.246	21.11466194
606.437	21.12577432
606.629	21.13505847
606.821	21.14210163
607.013	21.15000584
607.205	21.15833577
607.397	21.16750211
607.588	21.17835492
607.78	21.19034399
607.972	21.19558869
608.164	21.20317363
608.355	21.21063837
608.547	21.21620485
608.739	21.22624599
608.93	21.23572076
609.122	21.24543374
609.314	21.25525923
609.505	21.26265532
609.697	21.27201636
609.889	21.27834511
610.08	21.28290958
610.272	21.29068632
610.463	21.29855622
610.655	21.30611721
610.847	21.31343833
611.038	21.31599688
611.23	21.32729139
611.421	21.33690732
611.613	21.34376449
611.804	21.34805462
611.996	21.36158364
612.187	21.37351249
612.379	21.3829784
612.57	21.39686563
612.761	21.40521698
612.953	21.41483532
613.144	21.42597754
613.336	21.43289445
613.527	21.44165549
613.718	21.44876599
613.91	21.45875578
614.101	21.46703111
614.292	21.47427903
614.483	21.48276919
614.675	21.49185311
614.866	21.50375167
615.057	21.51784016
615.248	21.524428
615.44	21.5322074
615.631	21.53961124
615.822	21.54490014
616.013	21.55095513
616.204	21.55677144
616.396	21.56621774
616.587	21.57342346
616.778	21.57945228
616.969	21.58466256
617.16	21.58965298
617.351	21.60003728
617.542	21.60910468
617.733	21.61850969
617.924	21.62577353
618.115	21.63591371
618.306	21.64190177
618.497	21.65122
618.688	21.65747794
618.879	21.66048465
619.07	21.66792327
619.261	21.67727608
619.452	21.68175815
619.643	21.68787784
619.834	21.69804747
620.025	21.70514908
620.216	21.71376747
620.407	21.72109335
620.597	21.72844713
620.788	21.74015887
620.979	21.75016416
621.17	21.76136442
621.361	21.7677913
621.551	21.77896295
621.742	21.78698121
621.933	21.79772178
622.124	21.8088956
622.314	21.82068588
622.505	21.82864586
622.696	21.83536873
622.886	21.84668247
623.077	21.85275772
623.268	21.86093748
623.458	21.87186221
623.649	21.88231075
623.84	21.89058903
624.03	21.89953113
624.221	21.90832763
624.411	21.918034
624.602	21.92258759
624.792	21.93219508
624.983	21.94331634
625.173	21.9533292
625.364	21.96252429
625.554	21.97089751
625.745	21.98136281
625.935	21.98806242
626.126	21.99085756
626.316	21.99733711
626.507	22.00456572
626.697	22.01615751
626.887	22.0229854
627.078	22.03290826
627.268	22.0400379
627.458	22.05112646
627.649	22.06269621
627.839	22.07088225
628.029	22.08078258
628.22	22.08914921
628.41	22.09234394
628.6	22.10481026
628.79	22.10750909
628.981	22.11292924
629.171	22.11794019
629.361	22.12731873
629.551	22.13410831
629.741	22.13926593
629.932	22.14628927
630.122	22.15708023
630.312	22.16425836
630.502	22.1680781
630.692	22.17458694
630.882	22.18064752
631.072	22.19235402
631.262	22.20047873
631.452	22.20374783
631.642	22.21031458
631.832	22.21891012
632.022	22.22419176
632.212	22.23253999
632.402	22.24513708
632.592	22.25142057
632.782	22.26248266
632.972	22.2702788
633.162	22.28306939
633.352	22.28989396
633.542	22.29882713
633.732	22.30870811
633.922	22.31975126
634.111	22.32767037
634.301	22.33462606
634.491	22.34535583
634.681	22.35465228
634.871	22.36548175
635.06	22.3700377
635.25	22.37783881
635.44	22.3884737
635.63	22.39514426
635.819	22.40448603
636.009	22.41347678
636.199	22.42202352
636.388	22.42644416
636.578	22.43695618
636.768	22.44706092
636.957	22.4530366
637.147	22.4537196
637.337	22.46048427
637.526	22.46353373
637.716	22.46973529
637.905	22.47587866
638.095	22.48540975
638.284	22.49469713
638.474	22.50280672
638.663	22.51276796
638.853	22.51937418
639.042	22.52968669
639.232	22.5355551
639.421	22.54052288
639.611	22.5485078
639.8	22.55407115
639.99	22.56125279
640.179	22.56761591
640.368	22.57421088
640.558	22.57596716
640.747	22.57772667
640.936	22.58301238
641.126	22.597122
641.315	22.6071347
641.504	22.61965692
641.694	22.63052707
641.883	22.64078846
642.072	22.6458983
642.261	22.65123495
642.451	22.6625317
642.64	22.67095392
642.829	22.67789458
643.018	22.68424158
643.207	22.69679087
643.397	22.70781235
643.586	22.71361162
643.775	22.72298144
643.964	22.72956257
644.153	22.73869889
644.342	22.75162016
644.531	22.76011659
644.72	22.77337367
644.909	22.78514318
645.098	22.78961794
645.287	22.79979948
645.476	22.80947685
645.665	22.81739373
645.854	22.81711268
646.043	22.8247674
646.232	22.83474771
646.421	22.83596181
646.61	22.84132047
646.799	22.84624286
646.988	22.8552491
647.177	22.86004929
647.365	22.870683
647.554	22.88132938
647.743	22.89073863
647.932	22.89958885
648.121	22.90564687
648.309	22.91190674
648.498	22.92310862
648.687	22.92866069
648.876	22.93946413
649.064	22.94589833
649.253	22.95157604
649.442	22.9567542
649.63	22.95975964
649.819	22.97160259
650.008	22.98382863
650.196	22.9872468
650.385	22.99389904
650.574	23.00403139
650.762	23.01386419
650.951	23.02086131
651.139	23.02959372
651.328	23.03227009
651.516	23.04049711
651.705	23.0469313
651.893	23.05778754
652.082	23.06678757
652.27	23.07512857
652.459	23.08250647
652.647	23.09215517
652.836	23.09605697
653.024	23.10380464
653.213	23.10561613
653.401	23.11150233
653.589	23.12712479
653.778	23.13681494
653.966	23.14554466
654.154	23.15880609
654.343	23.17588774
654.531	23.17973141
654.719	23.18813167
654.908	23.19470336
655.096	23.20284468
655.284	23.21557518
655.472	23.22046009
655.661	23.22578165
655.849	23.22751681
656.037	23.23858119
656.225	23.24672605
656.413	23.25593756
656.601	23.26525975
656.79	23.27630696
656.978	23.28666657
657.166	23.30187712
657.354	23.31123049
657.542	23.31535254
657.73	23.32214988
657.918	23.32467602
658.106	23.33477863
658.294	23.33837445
658.482	23.34818176
658.67	23.36446047
658.858	23.37233132
659.046	23.38146494
659.234	23.38773986
659.422	23.39241822
659.61	23.40242539
659.798	23.41371242
659.986	23.41372066
660.173	23.4165878
660.361	23.42382511
660.549	23.42902023
660.737	23.43809229
660.925	23.44426003
661.113	23.45114647
661.3	23.45266695
661.488	23.45756086
661.676	23.46533658
661.864	23.473548
662.051	23.48178614
662.239	23.49125335
662.427	23.49604875
662.614	23.4976099
662.802	23.50678031
662.99	23.51334174
663.177	23.52286941
663.365	23.54068087
663.553	23.54600455
663.74	23.55688219
663.928	23.57261199
664.115	23.58291092
664.303	23.58691241
664.49	23.59267402
664.678	23.59978799
664.866	23.60574837
665.053	23.61030706
665.24	23.62331117
665.428	23.63041644
665.615	23.64003896
665.803	23.6483401
665.99	23.6541712
666.178	23.66184553
666.365	23.67084745
666.552	23.68280804
666.74	23.68876374
666.927	23.69272476
667.114	23.69627197
667.302	23.69916868
667.489	23.71150138
667.676	23.71380192
667.864	23.71752306
668.051	23.72441301
668.238	23.73631639
668.425	23.74404726
668.613	23.75025342
668.8	23.75962989
668.987	23.76862877
669.174	23.77505359
669.361	23.78392311
669.548	23.79035296
669.736	23.8003769
669.923	23.80376943
670.11	23.81055833
670.297	23.82456433
670.484	23.82595002
670.671	23.83261859
670.858	23.84120455
671.045	23.85203628
671.232	23.86041539
671.419	23.86758181
671.606	23.88034739
671.793	23.8860722
671.98	23.89444089
672.167	23.8976838
672.354	23.90680303
672.541	23.91057186
672.728	23.91785854
672.915	23.92368777
673.101	23.92881763
673.288	23.93986021
673.475	23.94601628
673.662	23.95101342
673.849	23.96121084
674.035	23.96767176
674.222	23.9718551
674.409	23.98511934
674.596	23.99931787
674.783	24.01071265
674.969	24.02079529
675.156	24.02489608
675.343	24.03288249
675.529	24.0417742
675.716	24.05521511
675.903	24.06208448
676.089	24.07835087
676.276	24.09330505
676.462	24.11050848
676.649	24.12052648
676.836	24.13417611
677.022	24.15173957
677.209	24.16445128
677.395	24.17716574
677.582	24.18806108
677.768	24.19427918
677.955	24.19896433
678.141	24.20444644
678.328	24.21079324
678.514	24.21698565
678.701	24.2273778
678.887	24.23306941
679.073	24.24709157
679.26	24.25938025
679.446	24.26495539
679.632	24.26971965
679.819	24.2849181
680.005	24.28902078
680.191	24.28749244
680.378	24.28983257
680.564	24.29996802
680.75	24.30818964
680.936	24.31205356
681.123	24.31747219
681.309	24.32337628
681.495	24.33336898
681.681	24.34570169
681.867	24.36225113
682.054	24.3716319
682.24	24.3815172
682.426	24.39030069
682.612	24.39842842
682.798	24.40594565
682.984	24.41118296
683.17	24.41428408
683.356	24.43154846
683.542	24.44270248
683.728	24.44453101
683.914	24.45376404
684.1	24.46431553
684.286	24.47603834
684.472	24.48652901
684.658	24.50029276
684.844	24.51139825
685.03	24.51839469
685.216	24.52928132
685.402	24.54161167
685.588	24.55176454
685.774	24.5599854
685.96	24.57200377
686.145	24.58416624
686.331	24.59509879
686.517	24.60876971
686.703	24.61973768
686.889	24.62787504
687.074	24.63835159
687.26	24.6402434
687.446	24.65303681
687.631	24.66199469
687.817	24.67138778
688.003	24.67897126
688.189	24.6847647
688.374	24.69233636
688.56	24.69865489
688.745	24.70606676
688.931	24.71459882
689.117	24.72999326
689.302	24.73903943
689.488	24.74259633
689.673	24.74955761
689.859	24.76126157
690.044	24.76617469
690.23	24.76964569
690.415	24.77506212
690.601	24.78237922
690.786	24.79591416
690.972	24.80665536
691.157	24.81358699
691.343	24.82135301
691.528	24.837973
691.713	24.84882622
691.899	24.86618507
692.084	24.88117369
692.269	24.89067511
692.455	24.89796035
692.64	24.90962428
692.825	24.91697071
693.011	24.91802076
693.196	24.92163441
693.381	24.94471885
693.566	24.95626678
693.752	24.9604725
693.937	24.97351728
694.122	24.98179316
694.307	24.98554473
694.492	24.9961769
694.678	25.00164987
694.863	25.00634127
695.048	25.01426121
695.233	25.01251862
695.418	25.01261828
695.603	25.02315855
695.788	25.02180546
695.973	25.02181742
696.158	25.02812347
696.343	25.03405383
696.528	25.03340009
696.713	25.04005724
696.898	25.04479192
697.083	25.05355897
697.268	25.04469995
697.453	25.04330691
697.638	25.05480684
697.823	25.05566027
698.008	25.06383612
698.192	25.07107014
698.377	25.06462206
698.562	25.06825377
698.747	25.06836535
698.932	25.07251995
699.117	25.08065438
699.301	25.08788586
699.486	25.0847655
699.671	25.09817783
699.856	25.10482249
700.04	25.10075715
700.225	25.10011648
700.41	25.10474556
700.594	25.10155113
700.779	25.10748992
700.964	25.10680406
701.148	25.11218376
701.333	25.12146463
701.517	25.11738585
701.702	25.11721068
701.887	25.12241263
702.071	25.11429455
702.256	25.12419272
702.44	25.1268143
702.625	25.13288396
702.809	25.13298098
702.994	25.14151446
703.178	25.14287495
703.362	25.14258729
703.547	25.13590002
703.731	25.13404494
703.916	25.13915954
704.1	25.13922341
704.284	25.14112354
704.469	25.14618559
704.653	25.14285963
704.837	25.14719032
705.022	25.14876998
705.206	25.13947938
705.39	25.14303545
705.575	25.13914905
705.759	25.12782326
705.943	25.13917499
706.127	25.13351533
706.311	25.13338789
706.496	25.1329954
706.68	25.13420182
706.864	25.1253034
707.048	25.12039046
707.232	25.1215545
707.416	25.1230299
707.6	25.12651333
707.785	25.1272027
707.969	25.13002512
708.153	25.12503707
708.337	25.1223428
708.521	25.12138405
708.705	25.11796626
708.889	25.11157603
709.073	25.11608853
709.257	25.10832578
709.441	25.11678187
709.624	25.1230589
709.808	25.11817687
709.992	25.12422951
710.176	25.12336862
710.36	25.12346031
710.544	25.12326706
710.728	25.12860243
710.912	25.13150819
711.095	25.1329232
711.279	25.13256411
711.463	25.13008868
711.647	25.12791031
711.83	25.12842809
712.014	25.13750648
712.198	25.13692946
712.382	25.13529589
712.565	25.12994178
712.749	25.13515761
712.933	25.14069081
713.116	25.15284896
713.3	25.14775896
713.483	25.14109161
713.667	25.14379
713.851	25.14106307
714.034	25.1303599
714.218	25.13217571
714.401	25.12779984
714.585	25.12367296
714.768	25.11501298
714.952	25.11128961
715.135	25.10029706
715.319	25.09510335
715.502	25.08701852
715.686	25.079293
715.869	25.06565972
716.052	25.06541187
716.236	25.0636221
716.419	25.06072572
716.602	25.05049771
716.786	25.03965059
716.969	25.02335528
717.152	25.01924478
717.336	25.01351663
717.519	25.00862059
717.702	25.00057223
717.885	25.00388611
718.069	24.98832398
718.252	24.984196
718.435	24.97633234
718.618	24.97047158
718.801	24.96520882
718.985	24.96508104
719.168	24.96410535
719.351	24.96848627
719.534	24.96293479
719.717	24.96333421
719.9	24.95934325
720.083	24.95254822
720.266	24.94897674
720.449	24.95117633
720.632	24.94201955
720.815	24.93683802
720.998	24.93469713
721.181	24.9331215
721.364	24.92776836
721.547	24.92375557
721.73	24.91982606
721.913	24.92209846
722.096	24.91498632
722.279	24.90823102
722.461	24.90904779
722.644	24.90628056
722.827	24.90528538
723.01	24.89426576
723.193	24.87922647
723.376	24.8738409
723.558	24.8723267
723.741	24.86840322
723.924	24.86040725
724.107	24.85205115
724.289	24.83538508
724.472	24.83297761
724.655	24.82743238
724.837	24.81893571
725.02	24.80784927
725.203	24.79835747
725.385	24.78911909
725.568	24.78381237
725.75	24.76832965
725.933	24.76737249
726.115	24.76040353
726.298	24.75231993
726.481	24.74515271
726.663	24.73166114
726.845	24.72667617
727.028	24.72391388
727.21	24.72038772
727.393	24.70875718
727.575	24.69972773
727.758	24.7043074
727.94	24.69862169
728.122	24.69832118
728.305	24.69599967
728.487	24.69330443
728.67	24.68788217
728.852	24.69006848
729.034	24.68855073
729.216	24.68855777
729.399	24.6801102
729.581	24.68429438
729.763	24.67588713
729.945	24.66739985
730.128	24.65789107
730.31	24.6451878
730.492	24.64199713
730.674	24.64015797
730.856	24.64003953
731.039	24.62975445
731.221	24.62695562
731.403	24.6262696
731.585	24.61414913
731.767	24.61218536
731.949	24.6077465
732.131	24.60046939
732.313	24.59722494
732.495	24.58936573
732.677	24.58498492
732.859	24.57503158
733.041	24.57054783
733.223	24.57240496
733.405	24.56791338
733.587	24.5691165
733.769	24.57553408
733.951	24.57766403
734.132	24.58086736
734.314	24.58142671
734.496	24.57490318
734.678	24.57147809
734.86	24.57000357
735.042	24.56815344
735.223	24.56075437
735.405	24.5583491
735.587	24.55226786
735.769	24.54645218
735.95	24.5435614
736.132	24.53979564
736.314	24.53916402
736.495	24.53230439
736.677	24.53372871
736.859	24.52956467
737.04	24.51732074
737.222	24.5156599
737.403	24.51296039
737.585	24.50632257
737.767	24.50254022
737.948	24.50190571
738.13	24.49942783
738.311	24.49574275
738.493	24.49204844
738.674	24.49288655
738.856	24.49144366
739.037	24.48874415
739.219	24.48908132
739.4	24.48556086
739.581	24.48949631
739.763	24.48765559
739.944	24.48267162
740.125	24.48198721
740.307	24.48384775
740.488	24.48643509
740.669	24.48814628
740.851	24.49294028
741.032	24.49086534
741.213	24.48810892
741.395	24.48348505
741.576	24.48836836
741.757	24.48638477
741.938	24.48581817
742.119	24.48927201
742.301	24.48380569
742.482	24.48570664
742.663	24.48311973
742.844	24.48094335
743.025	24.47977144
743.206	24.48429101
743.387	24.48488713
743.568	24.48850774
743.749	24.49631667
743.93	24.49765526
744.111	24.49808645
744.292	24.49290566
744.473	24.49239453
744.654	24.49720465
744.835	24.49656433
745.016	24.49432898
745.197	24.49871731
745.378	24.49541486
745.559	24.49989456
745.74	24.50204319
745.921	24.50424249
746.102	24.5110939
746.282	24.5096625
746.463	24.51443446
746.644	24.52215729
746.825	24.5223731
747.006	24.52125117
747.186	24.51949521
747.367	24.51946901
747.548	24.51532599
747.728	24.51484107
747.909	24.51357327
748.09	24.51505141
748.27	24.51552007
748.451	24.51294048
748.632	24.51861617
748.812	24.52522056
748.993	24.53228035
749.173	24.53628355
749.354	24.5372452
749.535	24.53512453
749.715	24.53856343
749.896	24.53859704
750.076	24.53929614
750.257	24.53655071
750.437	24.54083222
750.618	24.55277179
750.798	24.55628193
750.978	24.56845131
751.159	24.56891835
751.339	24.57836198
751.52	24.58396043
751.7	24.5949979
751.88	24.60273066
752.061	24.60370546
752.241	24.60882999
752.421	24.60985379
752.601	24.61673518
752.782	24.62062945
752.962	24.62881778
753.142	24.63204811
753.322	24.63843898
753.503	24.64233042
753.683	24.6529468
753.863	24.66217307
754.043	24.67422378
754.223	24.67410538
754.403	24.67663491
754.583	24.68512627
754.764	24.68149683
754.944	24.69292446
755.124	24.68730255
755.304	24.69479144
755.484	24.68793671
755.664	24.69737116
755.844	24.70400745
756.024	24.70627713
756.204	24.71008277
756.384	24.70962862
756.564	24.71203978
756.743	24.70850591
756.923	24.7137324
757.103	24.72267167
757.283	24.72775355
757.463	24.72285757
757.643	24.73283632
757.823	24.73367226
758.002	24.73698082
758.182	24.73646707
758.362	24.74428577
758.542	24.75474131
758.721	24.75667768
758.901	24.76153892
759.081	24.77097087
759.261	24.79184001
759.44	24.79728257
759.62	24.81224517
759.8	24.81161748
759.979	24.82172049
760.159	24.82658776
760.338	24.83110869
760.518	24.83214828
760.698	24.83880846
760.877	24.83571718
761.057	24.83846415
761.236	24.85091635
761.416	24.85431528
761.595	24.86286812
761.775	24.8684326
761.954	24.8706011
762.133	24.86883641
762.313	24.86906815
762.492	24.87169054
762.672	24.87730524
762.851	24.87393458
763.03	24.87378562
763.21	24.87766384
763.389	24.87953639
763.568	24.88625285
763.748	24.89154396
763.927	24.89870571
764.106	24.89713978
764.286	24.90578199
764.465	24.90048742
764.644	24.91187914
764.823	24.91660001
765.002	24.91050573
765.182	24.90626153
765.361	24.90170993
765.54	24.9114848
765.719	24.91689118
765.898	24.9257032
766.077	24.92630318
766.256	24.93202311
766.435	24.93216877
766.614	24.94214382
766.793	24.93740912
766.972	24.94001657
767.151	24.93975219
767.33	24.94678515
767.509	24.94571731
767.688	24.9435976
767.867	24.94830978
768.046	24.95368226
768.225	24.95823489
768.404	24.96150688
768.583	24.96553299
768.762	24.97735339
768.94	24.98515377
769.119	24.99177334
769.298	24.99265306
769.477	24.99651931
769.656	24.99891159
769.834	25.00246083
770.013	25.00714263
770.192	25.02102451
770.37	25.02127224
770.549	25.03222959
770.728	25.03256814
770.906	25.03566886
771.085	25.03567642
771.264	25.0351984
771.442	25.0388025
771.621	25.04749593
771.799	25.04926965
771.978	25.06269222
772.157	25.06465301
772.335	25.06429329
772.514	25.06544441
772.692	25.07212408
772.871	25.0816614
773.049	25.0838711
773.228	25.09108711
773.406	25.10115955
773.584	25.10923301
773.763	25.10633435
773.941	25.10831654
774.119	25.10681874
774.298	25.12072848
774.476	25.11587341
774.655	25.12748118
774.833	25.14044848
775.011	25.14672911
775.189	25.15510732
775.368	25.16008443
775.546	25.16740411
775.724	25.16908387
775.902	25.17362861
776.08	25.18352842
776.259	25.1905073
776.437	25.19000874
776.615	25.18505048
776.793	25.19001434
776.971	25.18925367
777.149	25.18527691
777.327	25.1905517
777.505	25.1947954
777.683	25.20277215
777.861	25.2097091
778.04	25.20350547
778.218	25.21330443
778.395	25.21356121
778.573	25.20890525
778.751	25.21749026
778.929	25.21729992
779.107	25.21312118
779.285	25.21596802
779.463	25.21503158
779.641	25.22328886
779.819	25.22165198
779.997	25.22948239
780.174	25.23597873
780.352	25.24174883
780.53	25.2434253
780.708	25.24706274
780.886	25.25342687
781.063	25.25173854
781.241	25.26478865
781.419	25.25880719
781.596	25.26240973
781.774	25.26420704
781.952	25.27128691
782.129	25.28165064
782.307	25.28843177
782.485	25.29142028
782.662	25.29855125
782.84	25.30354764
783.017	25.30352236
783.195	25.3133693
783.372	25.30880675
783.55	25.31177153
783.727	25.30313195
783.905	25.30924669
784.082	25.31160116
784.26	25.31301908
784.437	25.31834525
784.615	25.31939139
784.792	25.33844499
784.969	25.34263167
785.147	25.34555893
785.324	25.34679957
785.501	25.34895774
785.679	25.35048108
785.856	25.34428817
786.033	25.34327157
786.211	25.3517252
786.388	25.3588376
786.565	25.36197716
786.742	25.36629294
786.92	25.3686514
787.097	25.37281363
787.274	25.37798915
787.451	25.3868519
787.628	25.38904874
787.805	25.39661601
787.982	25.40261827
788.16	25.40693842
788.337	25.41668756
788.514	25.41614414
788.691	25.41556973
788.868	25.42946979
789.045	25.44568142
789.222	25.45255261
789.399	25.45483904
789.576	25.45378782
789.753	25.46424672
789.93	25.45720503
790.106	25.45045837
790.283	25.45730438
790.46	25.45593942
790.637	25.44878585
790.814	25.46345468
790.991	25.46975021
791.168	25.46739616
791.344	25.46159587
791.521	25.46877568
791.698	25.46823222
791.875	25.47396249
792.051	25.47263136
792.228	25.46585544
792.405	25.47142529
792.581	25.46477973
792.758	25.45259662
792.935	25.45701768
793.111	25.46269322
793.288	25.47258118
793.465	25.47182202
793.641	25.48313664
793.818	25.4919256
793.994	25.49868127
794.171	25.50582298
794.347	25.51224141
794.524	25.50370601
794.7	25.51435421
794.877	25.51888706
795.053	25.52235025
795.23	25.52262592
795.406	25.54246786
795.583	25.53073352
795.759	25.52464314
795.935	25.52245299
796.112	25.52101529
796.288	25.51310924
796.464	25.51626111
796.641	25.52022323
796.817	25.52508402
796.993	25.52605682
797.169	25.53422601
797.346	25.53901043
797.522	25.53975111
797.698	25.54004174
797.874	25.55275317
798.051	25.5517912
798.227	25.56161908
798.403	25.55523922
798.579	25.56974181
798.755	25.57327887
798.931	25.57484808
799.107	25.5618316
799.283	25.58062491
799.459	25.58371056
799.635	25.59376113
799.811	25.59121805
799.987	25.60601172
800.163	25.60353253
800.339	25.60359784
800.515	25.61441461
800.691	25.60910973
800.867	25.61260107
801.043	25.60494276
801.219	25.61257215
801.395	25.61028222
801.571	25.60484197
801.746	25.61776056
801.922	25.60912083
802.098	25.60701466
802.274	25.59699897
802.45	25.60346106
802.625	25.60387302
802.801	25.59847033
802.977	25.58460105
803.152	25.6007668
803.328	25.60205746
803.504	25.6026447
803.679	25.60238282
803.855	25.61463459
804.031	25.61493527
804.206	25.59886176
804.382	25.6247071
804.557	25.6211804
804.733	25.61937103
804.909	25.6120866
805.084	25.59473827
805.26	25.58892379
805.435	25.58404832
805.61	25.58922625
805.786	25.59411111
805.961	25.59700507
806.137	25.60285503
806.312	25.60409132
806.488	25.60655594
806.663	25.59878396
806.838	25.59091119
807.014	25.5884377
807.189	25.60106442
807.364	25.60294832
807.54	25.59853599
807.715	25.5887919
807.89	25.60544949
808.065	25.57648694
808.241	25.5818519
808.416	25.5699616
808.591	25.56650283
808.766	25.59764944
808.941	25.6103024
809.116	25.62452996
809.291	25.6215192
809.467	25.61475359
809.642	25.60290373
809.817	25.58256664
809.992	25.56457747
810.167	25.5709974
810.342	25.59046584
810.517	25.57727492
810.692	25.57145006
810.867	25.56352956
811.042	25.55090021
811.217	25.55091975
811.392	25.56664294
811.567	25.5467032
811.741	25.53728961
811.916	25.51854051
812.091	25.53896394
812.266	25.53263661
812.441	25.5160056
812.616	25.51551879
812.79	25.47936353
812.965	25.48747653
813.14	25.49304006
813.315	25.50676829
813.489	25.5153456
813.664	25.53798734
813.839	25.53096161
814.013	25.51477095
814.188	25.52720342
814.363	25.52161496
814.537	25.52059924
814.712	25.56200201
814.887	25.54522843
815.061	25.53125062
815.236	25.54221656
815.41	25.55917
815.585	25.56982882
815.759	25.58013536
815.934	25.59182498
816.108	25.60216343
816.283	25.58154293
816.457	25.61412949
816.631	25.61668313
816.806	25.61898985
816.98	25.62352874
817.155	25.62578919
817.329	25.61775007
817.503	25.61863461
817.678	25.63615431
817.852	25.63590652
818.026	25.6452437
818.201	25.65800266
818.375	25.62899108
818.549	25.66259746
818.723	25.66111506
818.897	25.64974546
819.072	25.65467995
819.246	25.64358326
819.42	25.6191618
819.594	25.61032037
819.768	25.61011433
819.942	25.6249587
820.116	25.60259469
820.29	25.57256327
820.465	25.56416342
820.639	25.54425583
820.813	25.55733569
820.987	25.57463134
821.161	25.58639402
821.335	25.58396227
821.509	25.57196316
821.682	25.59434914
821.856	25.60441357
822.03	25.61305796
822.204	25.57858265
822.378	25.58258602
822.552	25.58011588
822.726	25.54002193
822.9	25.54754769
823.073	25.55939045
823.247	25.57862058
823.421	25.58588772
823.595	25.57317158
823.768	25.57111799
823.942	25.58758169
824.116	25.59261566
824.289	25.62031271
824.463	25.61829886
824.637	25.60846836
824.81	25.58952343
824.984	25.59173186
825.158	25.58809594
825.331	25.56373206
825.505	25.56750778
825.678	25.58000734
825.852	25.62326209
826.025	25.61709564
826.199	25.63493573
826.372	25.68599588
826.546	25.67720494
826.719	25.6586821
826.893	25.66996112
827.066	25.66359566
827.24	25.6649742
827.413	25.67122721
827.586	25.6723299
827.76	25.66961757
827.933	25.67303365
828.106	25.66368859
828.28	25.66101058
828.453	25.6925107
828.626	25.65537527
828.799	25.69700734
828.973	25.68532642
829.146	25.65938578
829.319	25.63196787
829.492	25.57944129
829.665	25.61795361
829.839	25.62554779
830.012	25.62511086
830.185	25.61676758
830.358	25.61978873
830.531	25.61391348
830.704	25.60298697
830.877	25.62443353
831.05	25.6358335
831.223	25.64325339
831.396	25.62722951
831.569	25.61599129
831.742	25.59823574
831.915	25.58083599
832.088	25.57154802
832.261	25.61754368
832.434	25.58891515
832.607	25.60435035
832.779	25.5749385
832.952	25.55424875
833.125	25.5794489
833.298	25.540672
833.471	25.53367163
833.643	25.51146105
833.816	25.56792495
833.989	25.56921978
834.162	25.54399528
834.334	25.57811428
834.507	25.55607533
834.68	25.54511939
834.852	25.53534013
835.025	25.54450066
835.198	25.55039467
835.37	25.58263765
835.543	25.58486824
835.715	25.55782855
835.888	25.54688421
836.061	25.53811465
836.233	25.56240465
836.406	25.55187345
836.578	25.57822427
836.751	25.55498508
836.923	25.58146952
837.095	25.52916241
837.268	25.55020337
837.44	25.49410547
837.613	25.48864834
837.785	25.49993839
837.957	25.45391236
838.13	25.4506796
838.302	25.4622083
838.474	25.48480998
838.647	25.45753074
838.819	25.44048797
838.991	25.3964053
839.163	25.40012841
839.336	25.41681849
839.508	25.42154211
839.68	25.41924154
839.852	25.38886927
840.024	25.43341914
840.196	25.42784685
840.368	25.43801384
840.541	25.39943559
840.713	25.42748197
840.885	25.42343552
841.057	25.44133797
841.229	25.47887197
841.401	25.43703225
841.573	25.46740993
841.745	25.45102266
841.917	25.42812424
842.089	25.37952038
842.261	25.35608579
842.432	25.34036585
842.604	25.31413696
842.776	25.32024501
842.948	25.30054947
843.12	25.28119745
843.292	25.2898963
843.464	25.29111524
843.635	25.25535267
843.807	25.23087924
843.979	25.25473202
844.151	25.25673292
844.322	25.25140229
844.494	25.26213747
844.666	25.17387428
844.837	25.14299552
845.009	25.16642245
845.181	25.11447185
845.352	25.10233298
845.524	25.1008454
845.695	25.11718471
845.867	25.13920345
846.039	25.13914514
846.21	25.17936907
846.382	25.17226046
846.553	25.19438381
846.725	25.21055245
846.896	25.20876952
847.068	25.1614248
847.239	25.21063141
847.41	25.24164064
847.582	25.19448502
847.753	25.18659011
847.925	25.22349109
848.096	25.17523523
848.267	25.24849098
848.439	25.27234845
848.61	25.26668629
848.781	25.30734201
848.952	25.36653121
849.124	25.38256268
849.295	25.40834689
849.466	25.44839086
849.637	25.45753197
849.808	25.46463745
849.98	25.43276266
850.151	25.36901867
850.322	25.37249168
850.493	25.36378035
850.664	25.38809025
850.835	25.34244159
851.006	25.33446132
851.177	25.33029019
851.348	25.3310308
851.519	25.32685315
851.69	25.32392084
851.861	25.36269373
852.032	25.32182616
852.203	25.30107577
852.374	25.25649204
852.545	25.21137524
852.716	25.18344958
852.887	25.1472151
853.057	25.12109772
853.228	25.16410649
853.399	25.13740571
853.57	25.17605745
853.741	25.22121267
853.911	25.21334822
854.082	25.17839159
854.253	25.21281267
854.424	25.23614478
854.594	25.28339218
854.765	25.33536589
854.936	25.35880684
855.106	25.33580443
855.277	25.32467025
855.447	25.31111528
855.618	25.35510305
855.789	25.34043806
855.959	25.3333059
856.13	25.38526466
856.3	25.42003907
856.471	25.4334045
856.641	25.4157959
856.812	25.33306952
856.982	25.3309662
857.153	25.30784401
857.323	25.31248482
857.493	25.30927633
857.664	25.33586852
857.834	25.32844416
858.004	25.26867882
858.175	25.26118171
858.345	25.16821905
858.515	25.11575518
858.686	25.08454506
858.856	25.1904171
859.026	25.12922098
859.196	25.10075129
859.367	25.06633918
859.537	25.16518044
859.707	25.08006605
859.877	25.1055259
860.047	25.0964247
860.217	25.12340467
860.387	25.11562016
860.558	25.09736144
860.728	25.08296416
860.898	25.0944188
861.068	25.08374623
861.238	25.0936077
861.408	24.98104853
861.578	25.01807707
861.748	24.95606092
861.918	25.02156017
862.088	25.02949299
862.257	25.04194669
862.427	24.88449332
862.597	25.00846735
862.767	25.03849661
862.937	25.10119543
863.107	24.98041112
863.277	25.00735148
863.446	24.98175171
863.616	25.00952591
863.786	24.98150143
863.956	25.03568015
864.125	25.09525929
864.295	25.09356805
864.465	25.0277505
864.634	24.96461666
864.804	25.0573596
864.974	25.06132288
865.143	25.10503392
865.313	25.10878486
865.482	25.10540099
865.652	25.09206722
865.822	25.02115484
865.991	25.11017872
866.161	25.04453557
866.33	24.98381182
866.5	25.0223194
866.669	25.1378817
866.838	25.09755022
867.008	24.98454568
867.177	24.96459159
867.347	25.05286007
867.516	25.04406849
867.685	25.03675671
867.855	25.05143022
868.024	25.08855829
868.193	25.16007108
868.363	25.05375406
868.532	25.14291164
868.701	25.08446287
868.87	25.0395032
869.04	25.02514761
869.209	24.96180009
869.378	25.08464782
869.547	25.03154618
869.716	25.00968356
869.885	25.04383832
870.055	25.01911502
870.224	24.90303116
870.393	24.92108433
870.562	24.97294855
870.731	24.9578443
870.9	24.86837032
871.069	24.87368137
871.238	24.88538654
871.407	24.88361914
871.576	24.89929736
871.745	24.83843284
871.914	24.84922898
872.083	24.82307747
872.251	24.92306517
872.42	24.97964022
872.589	24.8944666
872.758	24.8734132
872.927	24.74771967
873.096	24.77579209
873.264	24.77042396
873.433	24.74806483
873.602	24.66872786
873.771	24.75197009
873.939	24.69041096
874.108	24.61351001
874.277	24.59149922
874.445	24.65914867
874.614	24.58252885
874.783	24.56234148
874.951	24.50066239
875.12	24.48754955
875.288	24.44713191
875.457	24.42239686
875.625	24.35823003
875.794	24.17272835
875.962	24.08654345
876.131	24.14234552
876.299	24.25097237
876.468	24.26670281
876.636	24.1984535
876.805	24.11739977
876.973	24.1930133
877.141	24.26082814
877.31	24.25310267
877.478	24.37734933
877.647	24.5127079
877.815	24.3816952
877.983	24.27400867
878.151	24.3614017
878.32	24.43846172
878.488	24.44208979
878.656	24.40585498
878.824	24.39036081
878.992	24.32603189
879.161	24.35937724
879.329	24.51792069
879.497	24.40596937
879.665	24.56421247
879.833	24.54601396
880.001	24.6442301
880.169	24.59800894
880.337	24.53541307
880.505	24.40125746
880.673	24.3106455
880.841	24.13793103
881.009	24.07310409
881.177	24.06870903
881.345	24.31755988
881.513	24.3046911
881.681	24.02672084
881.849	23.97188269
882.017	24.11994876
882.185	24.10165256
882.352	24.07977751
882.52	23.99998566
882.688	24.04738294
882.856	23.85437289
883.024	24.04677266
883.191	23.90275443
883.359	23.72090075
883.527	23.43913393
883.694	23.43192403
883.862	23.49138672
884.03	23.45242688
884.197	23.51226707
884.365	23.83247943
884.533	23.60925732
884.7	23.49811536
884.868	23.46184299
885.035	23.48892253
885.203	23.69625113
885.37	23.57377962
885.538	23.40630061
885.705	23.40376269
885.873	23.47138528
886.04	23.52395344
886.208	23.42504823
886.375	23.47509432
886.542	23.29908806
886.71	23.22214412
886.877	23.64689824
